TimeStamp,Delta_AF8,Theta_AF8,Alpha_AF8,Beta_AF8,Gamma_AF8,stimulus_time,RAW_TP9,RAW_AF7,RAW_AF8,RAW_TP10
2022-07-05 14:03:30.972,0.8111405,0.18511117,0.43620417,0.5396081,0.34396076,0,753.47986,753.0769,758.71796,756.30035
2022-07-05 14:03:30.973,0.8111405,0.18511117,0.43620417,0.5396081,0.34396076,0,758.71796,753.8828,783.69965,795.38464
2022-07-05 14:03:30.973,0.8111405,0.18511117,0.43620417,0.5396081,0.34396076,0,759.5238,759.5238,781.685,807.0696
2022-07-05 14:03:30.974,0.8111405,0.18511117,0.43620417,0.5396081,0.34396076,0,759.12085,772.4176,760.32965,778.46155
2022-07-05 14:03:30.974,0.8111405,0.18511117,0.43620417,0.5396081,0.34396076,0,756.30035,765.9707,754.2857,768.3883
2022-07-05 14:03:30.974,0.8111405,0.18511117,0.43620417,0.5396081,0.34396076,0,755.89746,759.5238,772.8205,790.9524
2022-07-05 14:03:30.974,0.8111405,0.18511117,0.43620417,0.5396081,0.34396076,0,769.19415,770.80585,789.7436,814.7253
2022-07-05 14:03:30.975,0.8111405,0.18511117,0.43620417,0.5396081,0.34396076,0,776.8498,770.40295,771.2088,798.20514
2022-07-05 14:03:30.975,0.8111405,0.18511117,0.43620417,0.5396081,0.34396076,0,780.4762,768.3883,757.9121,780.07324
2022-07-05 14:03:30.975,0.8111405,0.18511117,0.43620417,0.5396081,0.34396076,0,784.10254,767.98535,770.40295,790.14655
2022-07-05 14:03:30.976,0.8111405,0.18511117,0.43620417,0.5396081,0.34396076,0,787.72894,762.74725,786.9231,808.68134
2022-07-05 14:03:30.976,0.8111405,0.18511117,0.43620417,0.5396081,0.34396076,0,791.3553,762.74725,774.83514,802.6374
2022-07-05 14:03:30.976,0.8111405,0.18511117,0.43620417,0.5396081,0.34396076,0,786.9231,762.3443,750.2564,780.4762
2022-07-05 14:03:30.977,0.8111405,0.18511117,0.43620417,0.5396081,0.34396076,0,788.1319,757.9121,750.65936,782.49084
2022-07-05 14:03:30.977,0.8111405,0.18511117,0.43620417,0.5396081,0.34396076,0,806.26373,767.5824,784.90845,814.7253
2022-07-05 14:03:30.977,0.8111405,0.18511117,0.43620417,0.5396081,0.34396076,0,815.9341,775.64105,789.34064,817.9487
2022-07-05 14:03:30.978,0.8111405,0.18511117,0.43620417,0.5396081,0.34396076,0,810.696,782.0879,762.3443,787.72894
2022-07-05 14:03:30.978,0.8111405,0.18511117,0.43620417,0.5396081,0.34396076,0,806.6667,790.54944,759.92676,785.7143
2022-07-05 14:03:30.978,0.8111405,0.18511117,0.43620417,0.5396081,0.34396076,0,805.05493,785.31134,779.2674,810.293
2022-07-05 14:03:30.979,0.8111405,0.18511117,0.43620417,0.5396081,0.34396076,0,808.68134,772.4176,780.87915,822.7839
2022-07-05 14:03:30.979,0.8111405,0.18511117,0.43620417,0.5396081,0.34396076,0,809.89014,782.49084,763.1502,799.011
2022-07-05 14:03:30.980,0.8111405,0.18511117,0.43620417,0.5396081,0.34396076,0,805.4579,805.4579,758.315,781.28204
2022-07-05 14:03:30.980,0.8111405,0.18511117,0.43620417,0.5396081,0.34396076,0,807.8755,809.89014,778.46155,801.8315
2022-07-05 14:03:30.980,0.8111405,0.18511117,0.43620417,0.5396081,0.34396076,0,815.5311,801.4286,794.17584,821.1722
2022-07-05 14:03:31.011,0.8111405,0.18511117,0.43620417,0.5396081,0.34396076,0,800.6227,795.78754,775.2381,790.14655
2022-07-05 14:03:31.012,0.8111405,0.18511117,0.43620417,0.5396081,0.34396076,0,783.69965,791.3553,750.2564,768.3883
2022-07-05 14:03:31.013,0.8111405,0.18511117,0.43620417,0.5396081,0.34396076,0,789.34064,778.46155,767.1795,791.3553
2022-07-05 14:03:31.013,0.8111405,0.18511117,0.43620417,0.5396081,0.34396076,0,797.8022,769.59705,794.57874,819.9634
2022-07-05 14:03:31.013,0.8111405,0.18511117,0.43620417,0.5396081,0.34396076,0,801.02563,774.83514,786.9231,806.6667
2022-07-05 14:03:31.013,0.8111405,0.18511117,0.43620417,0.5396081,0.34396076,0,799.011,784.10254,775.64105,773.6264
2022-07-05 14:03:31.014,0.8111405,0.18511117,0.43620417,0.5396081,0.34396076,0,793.7729,781.28204,779.2674,770.80585
2022-07-05 14:03:31.014,0.8111405,0.18511117,0.43620417,0.5396081,0.34396076,0,800.6227,768.3883,796.5934,800.6227
2022-07-05 14:03:31.014,0.8111405,0.18511117,0.43620417,0.5396081,0.34396076,0,802.6374,765.16486,796.99634,808.68134
2022-07-05 14:03:31.015,0.8111405,0.18511117,0.43620417,0.5396081,0.34396076,0,799.011,777.25275,776.4469,783.69965
2022-07-05 14:03:31.015,0.8111405,0.18511117,0.43620417,0.5396081,0.34396076,0,809.0842,782.8938,771.2088,781.685
2022-07-05 14:03:31.015,0.8111405,0.18511117,0.43620417,0.5396081,0.34396076,0,815.5311,776.4469,794.9817,806.6667
2022-07-05 14:03:31.096,0.8111405,0.18511117,0.43620417,0.5396081,0.34396076,0,815.12823,770,807.0696,821.978
2022-07-05 14:03:31.097,0.8111405,0.18511117,0.43620417,0.5396081,0.34396076,0,809.4872,770.80585,788.5348,790.54944
2022-07-05 14:03:31.098,0.8111405,0.18511117,0.43620417,0.5396081,0.34396076,0,809.89014,779.2674,781.28204,768.3883
2022-07-05 14:03:31.098,0.8111405,0.18511117,0.43620417,0.5396081,0.34396076,0,825.6044,784.5055,794.17584,793.7729
2022-07-05 14:03:31.098,0.8111405,0.18511117,0.43620417,0.5396081,0.34396076,0,836.4835,786.9231,808.68134,821.5751
2022-07-05 14:03:31.099,0.8111405,0.18511117,0.43620417,0.5396081,0.34396076,0,835.2747,799.011,796.99634,807.47253
2022-07-05 14:03:31.099,0.8111405,0.18511117,0.43620417,0.5396081,0.34396076,0,841.7216,808.2784,774.43225,787.72894
2022-07-05 14:03:31.099,0.8111405,0.18511117,0.43620417,0.5396081,0.34396076,0,846.9597,797.3993,781.28204,796.1905
2022-07-05 14:03:31.100,0.8111405,0.18511117,0.43620417,0.5396081,0.34396076,0,843.3333,784.10254,801.02563,815.5311
2022-07-05 14:03:31.100,0.8111405,0.18511117,0.43620417,0.5396081,0.34396076,0,843.3333,786.52014,790.54944,806.26373
2022-07-05 14:03:31.100,0.8111405,0.18511117,0.43620417,0.5396081,0.34396076,0,836.8865,790.14655,768.3883,778.46155
2022-07-05 14:03:31.100,0.8111405,0.18511117,0.43620417,0.5396081,0.34396076,0,830.4396,796.5934,767.1795,783.69965
2022-07-05 14:03:31.101,0.8111405,0.18511117,0.43620417,0.5396081,0.34396076,0,834.0659,800.6227,794.17584,815.5311
2022-07-05 14:03:31.101,0.8111405,0.18511117,0.43620417,0.5396081,0.34396076,0,833.663,797.8022,805.4579,817.9487
2022-07-05 14:03:31.103,0.8111405,0.18511117,0.43620417,0.5396081,0.34396076,0,836.08057,800.6227,783.69965,783.69965
2022-07-05 14:03:31.103,0.8111405,0.18511117,0.43620417,0.5396081,0.34396076,0,831.6484,792.96704,777.25275,768.7912
2022-07-05 14:03:31.103,0.8111405,0.18511117,0.43620417,0.5396081,0.34396076,0,827.2161,785.7143,800.2198,797.8022
2022-07-05 14:03:31.104,0.8111405,0.18511117,0.43620417,0.5396081,0.34396076,0,833.2601,797.3993,807.8755,817.9487
2022-07-05 14:03:31.104,0.8111405,0.18511117,0.43620417,0.5396081,0.34396076,0,828.022,809.4872,787.72894,790.54944
2022-07-05 14:03:31.104,0.8111405,0.18511117,0.43620417,0.5396081,0.34396076,0,815.5311,799.011,778.0586,772.4176
2022-07-05 14:03:31.104,0.8111405,0.18511117,0.43620417,0.5396081,0.34396076,0,813.91943,781.685,791.3553,793.36993
2022-07-05 14:03:31.105,0.8111405,0.18511117,0.43620417,0.5396081,0.34396076,0,821.5751,774.0293,803.44324,813.1135
2022-07-05 14:03:31.105,0.8111405,0.18511117,0.43620417,0.5396081,0.34396076,0,825.2015,785.7143,786.9231,796.5934
2022-07-05 14:03:31.105,0.8111405,0.18511117,0.43620417,0.5396081,0.34396076,0,833.663,801.02563,778.0586,778.46155
2022-07-05 14:03:31.130,0.8111405,0.18511117,0.43620417,0.5396081,0.34396076,0,836.8865,798.20514,790.14655,786.52014
2022-07-05 14:03:31.131,0.8111405,0.18511117,0.43620417,0.5396081,0.34396076,0,832.4542,788.5348,801.4286,811.9048
2022-07-05 14:03:31.131,0.8111405,0.18511117,0.43620417,0.5396081,0.34396076,0,831.2454,794.57874,792.1612,810.696
2022-07-05 14:03:31.131,0.8111405,0.18511117,0.43620417,0.5396081,0.34396076,0,823.1868,806.6667,771.6117,782.49084
2022-07-05 14:03:31.132,0.8111405,0.18511117,0.43620417,0.5396081,0.34396076,0,822.7839,801.4286,772.01465,782.8938
2022-07-05 14:03:31.132,0.8111405,0.18511117,0.43620417,0.5396081,0.34396076,0,831.2454,802.6374,797.8022,808.68134
2022-07-05 14:03:31.132,0.8111405,0.18511117,0.43620417,0.5396081,0.34396076,0,833.663,800.2198,800.2198,811.50183
2022-07-05 14:03:31.132,0.8111405,0.18511117,0.43620417,0.5396081,0.34396076,0,832.8571,790.14655,775.64105,788.1319
2022-07-05 14:03:31.133,0.8111405,0.18511117,0.43620417,0.5396081,0.34396076,0,830.84247,795.38464,775.64105,778.86444
2022-07-05 14:03:31.133,0.8111405,0.18511117,0.43620417,0.5396081,0.34396076,0,834.87177,804.2491,801.8315,802.23444
2022-07-05 14:03:31.133,0.8111405,0.18511117,0.43620417,0.5396081,0.34396076,0,842.9304,813.1135,814.7253,822.7839
2022-07-05 14:03:31.134,0.8111405,0.18511117,0.43620417,0.5396081,0.34396076,0,838.49817,810.696,794.17584,796.5934
2022-07-05 14:03:31.197,0.8111405,0.18511117,0.43620417,0.5396081,0.34396076,0,839.304,810.696,789.34064,778.46155
2022-07-05 14:03:31.197,0.8111405,0.18511117,0.43620417,0.5396081,0.34396076,0,836.08057,801.8315,808.2784,795.38464
2022-07-05 14:03:31.198,0.8111405,0.18511117,0.43620417,0.5396081,0.34396076,0,836.4835,790.54944,817.9487,826.4103
2022-07-05 14:03:31.198,0.8111405,0.18511117,0.43620417,0.5396081,0.34396076,0,839.707,801.4286,803.8461,823.5897
2022-07-05 14:03:31.200,0.8111405,0.18511117,0.43620417,0.5396081,0.34396076,0,834.4689,804.2491,786.52014,796.99634
2022-07-05 14:03:31.200,0.8111405,0.18511117,0.43620417,0.5396081,0.34396076,0,826.0073,798.60803,787.326,794.17584
2022-07-05 14:03:31.200,0.8111405,0.18511117,0.43620417,0.5396081,0.34396076,0,822.381,792.5641,801.8315,819.15753
2022-07-05 14:03:31.201,0.8111405,0.18511117,0.43620417,0.5396081,0.34396076,0,826.0073,795.78754,804.65204,826.8132
2022-07-05 14:03:31.201,0.8111405,0.18511117,0.43620417,0.5396081,0.34396076,0,830.0366,802.6374,797.3993,803.8461
2022-07-05 14:03:31.201,0.8111405,0.18511117,0.43620417,0.5396081,0.34396076,0,828.8278,803.0403,800.6227,794.17584
2022-07-05 14:03:31.202,0.8111405,0.18511117,0.43620417,0.5396081,0.34396076,0,828.022,792.96704,814.7253,819.15753
2022-07-05 14:03:31.202,0.8111405,0.18511117,0.43620417,0.5396081,0.34396076,0,836.8865,794.57874,816.7399,833.2601
2022-07-05 14:03:31.230,0.8111405,0.18511117,0.43620417,0.5396081,0.34396076,0,839.304,815.9341,797.3993,809.89014
2022-07-05 14:03:31.230,0.8111405,0.18511117,0.43620417,0.5396081,0.34396076,0,835.6777,811.9048,790.9524,806.26373
2022-07-05 14:03:31.231,0.8111405,0.18511117,0.43620417,0.5396081,0.34396076,0,849.7802,798.20514,812.71063,844.94507
2022-07-05 14:03:31.231,0.8111405,0.18511117,0.43620417,0.5396081,0.34396076,0,861.4652,807.8755,823.5897,861.06226
2022-07-05 14:03:31.231,0.8111405,0.18511117,0.43620417,0.5396081,0.34396076,0,839.707,810.696,795.78754,812.71063
2022-07-05 14:03:31.232,0.8111405,0.18511117,0.43620417,0.5396081,0.34396076,0,827.2161,825.2015,784.10254,786.1172
2022-07-05 14:03:31.232,0.8111405,0.18511117,0.43620417,0.5396081,0.34396076,0,837.28937,823.1868,800.6227,815.9341
2022-07-05 14:03:31.232,0.8111405,0.18511117,0.43620417,0.5396081,0.34396076,0,848.5714,797.3993,813.1135,848.97437
2022-07-05 14:03:31.233,0.8111405,0.18511117,0.43620417,0.5396081,0.34396076,0,858.24176,805.8608,800.2198,836.4835
2022-07-05 14:03:31.233,0.8111405,0.18511117,0.43620417,0.5396081,0.34396076,0,855.0183,823.5897,776.8498,804.65204
2022-07-05 14:03:31.234,0.8111405,0.18511117,0.43620417,0.5396081,0.34396076,0,842.9304,827.2161,780.07324,802.6374
2022-07-05 14:03:31.234,0.8111405,0.18511117,0.43620417,0.5396081,0.34396076,0,845.7509,816.7399,799.011,828.022
2022-07-05 14:03:31.297,0.8111405,0.18511117,0.43620417,0.5396081,0.34396076,0,852.1978,813.5165,789.7436,834.87177
2022-07-05 14:03:31.298,0.8111405,0.18511117,0.43620417,0.5396081,0.34396076,0,844.1392,825.2015,766.3736,805.8608
2022-07-05 14:03:31.298,0.8111405,0.18511117,0.43620417,0.5396081,0.34396076,0,837.28937,821.978,762.3443,793.36993
2022-07-05 14:03:31.298,0.8111405,0.18511117,0.43620417,0.5396081,0.34396076,0,838.9011,816.7399,776.04395,821.5751
2022-07-05 14:03:31.299,0.8111405,0.18511117,0.43620417,0.5396081,0.34396076,0,839.304,815.5311,782.0879,836.8865
2022-07-05 14:03:31.299,0.8111405,0.18511117,0.43620417,0.5396081,0.34396076,0,834.0659,822.381,764.35895,807.8755
2022-07-05 14:03:31.300,0.8111405,0.18511117,0.43620417,0.5396081,0.34396076,0,826.8132,825.6044,754.68866,787.326
2022-07-05 14:03:31.301,0.8111405,0.18511117,0.43620417,0.5396081,0.34396076,0,824.3956,806.6667,771.2088,807.47253
2022-07-05 14:03:31.301,0.8111405,0.18511117,0.43620417,0.5396081,0.34396076,0,830.84247,792.5641,778.86444,828.022
2022-07-05 14:03:31.301,0.8111405,0.18511117,0.43620417,0.5396081,0.34396076,0,824.3956,801.4286,761.53845,814.3223
2022-07-05 14:03:31.301,0.8111405,0.18511117,0.43620417,0.5396081,0.34396076,0,815.9341,806.6667,756.7033,795.78754
2022-07-05 14:03:31.302,0.8111405,0.18511117,0.43620417,0.5396081,0.34396076,0,813.5165,798.20514,772.01465,797.3993
2022-07-05 14:03:31.364,0.8111405,0.18511117,0.43620417,0.5396081,0.34396076,0,818.3516,792.5641,795.38464,826.8132
2022-07-05 14:03:31.365,0.8111405,0.18511117,0.43620417,0.5396081,0.34396076,0,825.6044,804.2491,790.14655,825.2015
2022-07-05 14:03:31.365,0.8111405,0.18511117,0.43620417,0.5396081,0.34396076,0,827.2161,818.3516,770,797.8022
2022-07-05 14:03:31.365,0.8111405,0.18511117,0.43620417,0.5396081,0.34396076,0,829.6337,808.2784,768.3883,794.57874
2022-07-05 14:03:31.366,0.8111405,0.18511117,0.43620417,0.5396081,0.34396076,0,838.9011,796.5934,780.07324,828.022
2022-07-05 14:03:31.366,0.8111405,0.18511117,0.43620417,0.5396081,0.34396076,0,845.34796,805.8608,792.5641,844.1392
2022-07-05 14:03:31.366,0.8111405,0.18511117,0.43620417,0.5396081,0.34396076,0,841.7216,819.5604,781.28204,809.4872
2022-07-05 14:03:31.366,0.8111405,0.18511117,0.43620417,0.5396081,0.34396076,0,839.304,813.5165,773.22345,793.7729
2022-07-05 14:03:31.367,0.8111405,0.18511117,0.43620417,0.5396081,0.34396076,0,846.55676,798.20514,789.34064,818.3516
2022-07-05 14:03:31.367,0.8111405,0.18511117,0.43620417,0.5396081,0.34396076,0,840.5128,784.90845,791.3553,832.0513
2022-07-05 14:03:31.367,0.8111405,0.18511117,0.43620417,0.5396081,0.34396076,0,835.2747,797.3993,775.64105,809.4872
2022-07-05 14:03:31.368,0.8111405,0.18511117,0.43620417,0.5396081,0.34396076,0,838.9011,811.50183,769.19415,794.9817
2022-07-05 14:03:31.397,0.8111405,0.18511117,0.43620417,0.5396081,0.34396076,0,840.5128,811.9048,783.69965,812.3077
2022-07-05 14:03:31.398,0.8111405,0.18511117,0.43620417,0.5396081,0.34396076,0,844.94507,814.3223,803.8461,848.5714
2022-07-05 14:03:31.398,0.8111405,0.18511117,0.43620417,0.5396081,0.34396076,0,841.7216,821.5751,788.93774,840.5128
2022-07-05 14:03:31.399,0.8111405,0.18511117,0.43620417,0.5396081,0.34396076,0,841.31866,823.1868,769.19415,812.3077
2022-07-05 14:03:31.399,0.8111405,0.18511117,0.43620417,0.5396081,0.34396076,0,840.5128,807.8755,779.67035,816.7399
2022-07-05 14:03:31.399,0.8111405,0.18511117,0.43620417,0.5396081,0.34396076,0,837.6923,800.6227,800.2198,836.4835
2022-07-05 14:03:31.400,0.8111405,0.18511117,0.43620417,0.5396081,0.34396076,0,840.10986,800.2198,803.8461,839.707
2022-07-05 14:03:31.400,0.8111405,0.18511117,0.43620417,0.5396081,0.34396076,0,835.6777,801.02563,792.5641,811.9048
2022-07-05 14:03:31.401,0.8111405,0.18511117,0.43620417,0.5396081,0.34396076,0,823.9927,803.44324,792.96704,795.38464
2022-07-05 14:03:31.402,0.8111405,0.18511117,0.43620417,0.5396081,0.34396076,0,826.8132,803.0403,813.1135,817.5458
2022-07-05 14:03:31.402,0.8111405,0.18511117,0.43620417,0.5396081,0.34396076,0,829.2308,799.81683,815.5311,832.0513
2022-07-05 14:03:31.402,0.8111405,0.18511117,0.43620417,0.5396081,0.34396076,0,820.7692,796.5934,797.3993,806.26373
2022-07-05 14:03:31.430,0.8111405,0.18511117,0.43620417,0.5396081,0.34396076,0,815.9341,797.8022,790.14655,784.10254
2022-07-05 14:03:31.431,0.8111405,0.18511117,0.43620417,0.5396081,0.34396076,0,815.9341,792.5641,802.6374,805.8608
2022-07-05 14:03:31.432,0.8111405,0.18511117,0.43620417,0.5396081,0.34396076,0,825.2015,790.9524,814.7253,831.2454
2022-07-05 14:03:31.432,0.8111405,0.18511117,0.43620417,0.5396081,0.34396076,0,820.7692,801.02563,799.81683,808.68134
2022-07-05 14:03:31.432,0.8111405,0.18511117,0.43620417,0.5396081,0.34396076,0,813.91943,807.8755,792.5641,786.9231
2022-07-05 14:03:31.433,0.8111405,0.18511117,0.43620417,0.5396081,0.34396076,0,816.337,811.0989,805.05493,802.6374
2022-07-05 14:03:31.433,0.8111405,0.18511117,0.43620417,0.5396081,0.34396076,0,819.9634,805.05493,814.3223,825.2015
2022-07-05 14:03:31.433,0.8111405,0.18511117,0.43620417,0.5396081,0.34396076,0,820.7692,803.8461,800.6227,815.12823
2022-07-05 14:03:31.434,0.8111405,0.18511117,0.43620417,0.5396081,0.34396076,0,816.337,799.41394,783.2967,784.10254
2022-07-05 14:03:31.434,0.8111405,0.18511117,0.43620417,0.5396081,0.34396076,0,809.0842,784.5055,790.9524,782.8938
2022-07-05 14:03:31.434,0.8111405,0.18511117,0.43620417,0.5396081,0.34396076,0,813.5165,780.4762,809.4872,816.337
2022-07-05 14:03:31.435,0.8111405,0.18511117,0.43620417,0.5396081,0.34396076,0,815.5311,792.96704,810.696,813.1135
2022-07-05 14:03:31.456,0.8111405,0.18511117,0.43620417,0.5396081,0.34396076,0,806.6667,819.9634,796.1905,778.0586
2022-07-05 14:03:31.456,0.8111405,0.18511117,0.43620417,0.5396081,0.34396076,0,806.6667,819.15753,792.96704,777.25275
2022-07-05 14:03:31.457,0.8111405,0.18511117,0.43620417,0.5396081,0.34396076,0,808.2784,788.1319,811.0989,810.293
2022-07-05 14:03:31.457,0.8111405,0.18511117,0.43620417,0.5396081,0.34396076,0,811.0989,778.46155,816.337,824.7985
2022-07-05 14:03:31.457,0.8111405,0.18511117,0.43620417,0.5396081,0.34396076,0,811.9048,790.9524,799.011,795.38464
2022-07-05 14:03:31.458,0.8111405,0.18511117,0.43620417,0.5396081,0.34396076,0,807.47253,810.696,799.011,786.1172
2022-07-05 14:03:31.458,0.8111405,0.18511117,0.43620417,0.5396081,0.34396076,0,809.89014,817.5458,823.9927,819.5604
2022-07-05 14:03:31.458,0.8111405,0.18511117,0.43620417,0.5396081,0.34396076,0,808.2784,798.20514,830.4396,835.6777
2022-07-05 14:03:31.458,0.8111405,0.18511117,0.43620417,0.5396081,0.34396076,0,797.3993,786.52014,806.26373,807.0696
2022-07-05 14:03:31.459,0.8111405,0.18511117,0.43620417,0.5396081,0.34396076,0,794.9817,792.96704,797.8022,784.5055
2022-07-05 14:03:31.460,0.8111405,0.18511117,0.43620417,0.5396081,0.34396076,0,800.6227,801.02563,811.0989,795.78754
2022-07-05 14:03:31.460,0.8111405,0.18511117,0.43620417,0.5396081,0.34396076,0,811.9048,790.14655,828.4249,819.5604
2022-07-05 14:03:31.510,0.8111405,0.18511117,0.43620417,0.5396081,0.34396076,0,807.47253,785.31134,822.7839,809.89014
2022-07-05 14:03:31.510,0.8111405,0.18511117,0.43620417,0.5396081,0.34396076,0,791.3553,797.8022,805.05493,781.28204
2022-07-05 14:03:31.510,0.8111405,0.18511117,0.43620417,0.5396081,0.34396076,0,794.17584,803.8461,815.12823,792.96704
2022-07-05 14:03:31.511,0.8111405,0.18511117,0.43620417,0.5396081,0.34396076,0,805.4579,799.011,837.28937,828.4249
2022-07-05 14:03:31.511,0.8111405,0.18511117,0.43620417,0.5396081,0.34396076,0,803.0403,792.5641,833.663,831.6484
2022-07-05 14:03:31.511,0.8111405,0.18511117,0.43620417,0.5396081,0.34396076,0,801.02563,813.5165,822.7839,805.8608
2022-07-05 14:03:31.511,0.8111405,0.18511117,0.43620417,0.5396081,0.34396076,0,803.44324,822.381,819.5604,794.57874
2022-07-05 14:03:31.511,0.8111405,0.18511117,0.43620417,0.5396081,0.34396076,0,805.05493,792.1612,828.4249,818.3516
2022-07-05 14:03:31.512,0.8111405,0.18511117,0.43620417,0.5396081,0.34396076,0,811.0989,793.36993,834.87177,840.5128
2022-07-05 14:03:31.512,0.8111405,0.18511117,0.43620417,0.5396081,0.34396076,0,811.0989,808.68134,813.91943,813.1135
2022-07-05 14:03:31.512,0.8111405,0.18511117,0.43620417,0.5396081,0.34396076,0,813.1135,814.7253,806.6667,793.36993
2022-07-05 14:03:31.512,0.8111405,0.18511117,0.43620417,0.5396081,0.34396076,0,818.3516,817.9487,823.9927,816.7399
2022-07-05 14:03:31.559,0.8111405,0.18511117,0.43620417,0.5396081,0.34396076,0,819.9634,812.71063,823.9927,836.08057
2022-07-05 14:03:31.559,0.8111405,0.18511117,0.43620417,0.5396081,0.34396076,0,815.5311,816.7399,803.0403,814.7253
2022-07-05 14:03:31.559,0.8111405,0.18511117,0.43620417,0.5396081,0.34396076,0,812.71063,816.7399,794.57874,789.34064
2022-07-05 14:03:31.560,0.8111405,0.18511117,0.43620417,0.5396081,0.34396076,0,809.0842,795.38464,801.02563,799.011
2022-07-05 14:03:31.560,0.8111405,0.18511117,0.43620417,0.5396081,0.34396076,0,809.89014,778.0586,815.12823,823.9927
2022-07-05 14:03:31.560,0.8111405,0.18511117,0.43620417,0.5396081,0.34396076,0,816.7399,803.44324,810.293,822.381
2022-07-05 14:03:31.560,0.8111405,0.18511117,0.43620417,0.5396081,0.34396076,0,818.7546,833.663,797.3993,801.8315
2022-07-05 14:03:31.561,0.8111405,0.18511117,0.43620417,0.5396081,0.34396076,0,817.5458,821.978,805.05493,801.4286
2022-07-05 14:03:31.561,0.8111405,0.18511117,0.43620417,0.5396081,0.34396076,0,826.4103,798.60803,826.8132,834.87177
2022-07-05 14:03:31.561,0.8111405,0.18511117,0.43620417,0.5396081,0.34396076,0,827.2161,798.60803,832.0513,846.1539
2022-07-05 14:03:31.561,0.8111405,0.18511117,0.43620417,0.5396081,0.34396076,0,811.9048,817.5458,808.68134,812.3077
2022-07-05 14:03:31.561,0.8111405,0.18511117,0.43620417,0.5396081,0.34396076,0,811.9048,826.8132,803.0403,794.9817
2022-07-05 14:03:31.610,0.8111405,0.18511117,0.43620417,0.5396081,0.34396076,0,817.1429,812.71063,829.6337,817.1429
2022-07-05 14:03:31.610,0.8111405,0.18511117,0.43620417,0.5396081,0.34396076,0,819.15753,805.8608,844.94507,838.9011
2022-07-05 14:03:31.610,0.8111405,0.18511117,0.43620417,0.5396081,0.34396076,0,816.7399,821.978,833.2601,817.5458
2022-07-05 14:03:31.611,0.8111405,0.18511117,0.43620417,0.5396081,0.34396076,0,809.4872,825.2015,819.9634,790.14655
2022-07-05 14:03:31.611,0.8111405,0.18511117,0.43620417,0.5396081,0.34396076,0,803.8461,805.05493,828.8278,800.2198
2022-07-05 14:03:31.611,0.8111405,0.18511117,0.43620417,0.5396081,0.34396076,0,808.2784,800.6227,838.49817,829.2308
2022-07-05 14:03:31.611,0.8111405,0.18511117,0.43620417,0.5396081,0.34396076,0,809.89014,823.1868,830.84247,819.5604
2022-07-05 14:03:31.611,0.8111405,0.18511117,0.43620417,0.5396081,0.34396076,0,803.44324,822.381,811.0989,787.72894
2022-07-05 14:03:31.612,0.8111405,0.18511117,0.43620417,0.5396081,0.34396076,0,806.26373,804.2491,811.9048,792.5641
2022-07-05 14:03:31.612,0.8111405,0.18511117,0.43620417,0.5396081,0.34396076,0,806.6667,799.011,829.2308,827.619
2022-07-05 14:03:31.612,0.8111405,0.18511117,0.43620417,0.5396081,0.34396076,0,806.6667,802.23444,822.7839,831.6484
2022-07-05 14:03:31.612,0.8111405,0.18511117,0.43620417,0.5396081,0.34396076,0,821.5751,815.5311,806.6667,811.50183
2022-07-05 14:03:31.690,0.8111405,0.18511117,0.43620417,0.5396081,0.34396076,0,829.6337,825.6044,821.1722,815.12823
2022-07-05 14:03:31.692,0.8111405,0.18511117,0.43620417,0.5396081,0.34396076,0,818.3516,820.3663,849.3773,839.707
2022-07-05 14:03:31.692,0.8111405,0.18511117,0.43620417,0.5396081,0.34396076,0,818.7546,808.2784,842.1245,848.1685
2022-07-05 14:03:31.692,0.8111405,0.18511117,0.43620417,0.5396081,0.34396076,0,823.1868,814.7253,824.7985,815.5311
2022-07-05 14:03:31.692,0.8111405,0.18511117,0.43620417,0.5396081,0.34396076,0,813.5165,819.5604,828.022,799.41394
2022-07-05 14:03:31.693,0.8111405,0.18511117,0.43620417,0.5396081,0.34396076,0,813.5165,813.1135,846.55676,825.2015
2022-07-05 14:03:31.693,0.8111405,0.18511117,0.43620417,0.5396081,0.34396076,0,815.9341,797.3993,855.82416,838.9011
2022-07-05 14:03:31.693,0.8111405,0.18511117,0.43620417,0.5396081,0.34396076,0,812.3077,790.9524,842.1245,818.3516
2022-07-05 14:03:31.694,0.8111405,0.18511117,0.43620417,0.5396081,0.34396076,0,814.7253,804.2491,836.8865,805.4579
2022-07-05 14:03:31.694,0.8111405,0.18511117,0.43620417,0.5396081,0.34396076,0,818.7546,803.0403,850.18317,819.5604
2022-07-05 14:03:31.694,0.8111405,0.18511117,0.43620417,0.5396081,0.34396076,0,823.9927,798.60803,856.63007,835.6777
2022-07-05 14:03:31.694,0.8111405,0.18511117,0.43620417,0.5396081,0.34396076,0,821.5751,815.12823,848.1685,815.9341
2022-07-05 14:03:31.729,0.8111405,0.18511117,0.43620417,0.5396081,0.34396076,0,812.3077,825.2015,843.73627,795.78754
2022-07-05 14:03:31.730,0.8111405,0.18511117,0.43620417,0.5396081,0.34396076,0,806.26373,813.1135,853.4066,806.26373
2022-07-05 14:03:31.731,0.8111405,0.18511117,0.43620417,0.5396081,0.34396076,0,807.0696,801.4286,870.7326,830.84247
2022-07-05 14:03:31.731,0.8111405,0.18511117,0.43620417,0.5396081,0.34396076,0,808.68134,801.02563,856.63007,829.6337
2022-07-05 14:03:31.732,0.8111405,0.18511117,0.43620417,0.5396081,0.34396076,0,803.0403,801.8315,828.8278,795.78754
2022-07-05 14:03:31.732,0.8111405,0.18511117,0.43620417,0.5396081,0.34396076,0,804.2491,817.5458,838.49817,796.1905
2022-07-05 14:03:31.732,0.8111405,0.18511117,0.43620417,0.5396081,0.34396076,0,813.91943,820.3663,861.4652,835.6777
2022-07-05 14:03:31.733,0.8111405,0.18511117,0.43620417,0.5396081,0.34396076,0,818.3516,804.65204,857.8388,849.3773
2022-07-05 14:03:31.733,0.8111405,0.18511117,0.43620417,0.5396081,0.34396076,0,813.91943,805.8608,842.9304,819.9634
2022-07-05 14:03:31.733,0.8111405,0.18511117,0.43620417,0.5396081,0.34396076,0,809.0842,809.0842,842.9304,801.4286
2022-07-05 14:03:31.733,0.8111405,0.18511117,0.43620417,0.5396081,0.34396076,0,801.8315,801.02563,850.989,814.3223
2022-07-05 14:03:31.734,0.8111405,0.18511117,0.43620417,0.5396081,0.34396076,0,807.0696,796.5934,855.82416,834.4689
2022-07-05 14:03:31.763,0.8111405,0.18511117,0.43620417,0.5396081,0.34396076,0,811.0989,800.2198,844.5421,819.15753
2022-07-05 14:03:31.764,0.8111405,0.18511117,0.43620417,0.5396081,0.34396076,0,805.05493,810.696,826.4103,788.5348
2022-07-05 14:03:31.764,0.8111405,0.18511117,0.43620417,0.5396081,0.34396076,0,802.6374,813.91943,831.6484,801.8315
2022-07-05 14:03:31.765,0.8111405,0.18511117,0.43620417,0.5396081,0.34396076,0,801.8315,805.8608,840.5128,830.0366
2022-07-05 14:03:31.765,0.8111405,0.18511117,0.43620417,0.5396081,0.34396076,0,802.6374,807.0696,827.2161,819.15753
2022-07-05 14:03:31.765,0.8111405,0.18511117,0.43620417,0.5396081,0.34396076,0,804.2491,827.2161,823.1868,794.17584
2022-07-05 14:03:31.766,0.8111405,0.18511117,0.43620417,0.5396081,0.34396076,0,803.0403,827.2161,833.2601,795.78754
2022-07-05 14:03:31.766,0.8111405,0.18511117,0.43620417,0.5396081,0.34396076,0,802.6374,807.8755,842.9304,822.381
2022-07-05 14:03:31.766,0.8111405,0.18511117,0.43620417,0.5396081,0.34396076,0,807.8755,811.9048,834.0659,825.6044
2022-07-05 14:03:31.767,0.8111405,0.18511117,0.43620417,0.5396081,0.34396076,0,801.8315,813.5165,816.337,792.1612
2022-07-05 14:03:31.767,0.8111405,0.18511117,0.43620417,0.5396081,0.34396076,0,794.9817,804.2491,820.3663,785.31134
2022-07-05 14:03:31.767,0.8111405,0.18511117,0.43620417,0.5396081,0.34396076,0,801.02563,791.3553,832.8571,815.9341
2022-07-05 14:03:31.830,0.8111405,0.18511117,0.43620417,0.5396081,0.34396076,0,806.26373,796.5934,831.2454,826.8132
2022-07-05 14:03:31.830,0.8111405,0.18511117,0.43620417,0.5396081,0.34396076,0,809.0842,816.7399,824.3956,806.26373
2022-07-05 14:03:31.831,0.8111405,0.18511117,0.43620417,0.5396081,0.34396076,0,802.6374,821.1722,824.7985,788.5348
2022-07-05 14:03:31.831,0.8111405,0.18511117,0.43620417,0.5396081,0.34396076,0,803.0403,809.89014,833.2601,805.4579
2022-07-05 14:03:31.832,0.8111405,0.18511117,0.43620417,0.5396081,0.34396076,0,810.293,796.99634,838.9011,832.4542
2022-07-05 14:03:31.833,0.8111405,0.18511117,0.43620417,0.5396081,0.34396076,0,810.696,810.696,836.08057,819.9634
2022-07-05 14:03:31.833,0.8111405,0.18511117,0.43620417,0.5396081,0.34396076,0,815.12823,835.6777,831.2454,801.8315
2022-07-05 14:03:31.833,0.8111405,0.18511117,0.43620417,0.5396081,0.34396076,0,810.293,819.15753,831.6484,811.50183
2022-07-05 14:03:31.834,0.8111405,0.18511117,0.43620417,0.5396081,0.34396076,0,808.68134,786.9231,836.4835,838.9011
2022-07-05 14:03:31.834,0.8111405,0.18511117,0.43620417,0.5396081,0.34396076,0,809.89014,790.14655,828.022,827.2161
2022-07-05 14:03:31.834,0.8111405,0.18511117,0.43620417,0.5396081,0.34396076,0,805.4579,811.50183,813.1135,796.5934
2022-07-05 14:03:31.834,0.8111405,0.18511117,0.43620417,0.5396081,0.34396076,0,799.011,817.1429,819.9634,800.6227
2022-07-05 14:03:31.863,0.8111405,0.18511117,0.43620417,0.5396081,0.34396076,0,802.6374,808.68134,839.304,824.3956
2022-07-05 14:03:31.863,0.8111405,0.18511117,0.43620417,0.5396081,0.34396076,0,815.9341,812.71063,845.34796,834.87177
2022-07-05 14:03:31.864,0.8111405,0.18511117,0.43620417,0.5396081,0.34396076,0,816.337,820.3663,842.9304,806.6667
2022-07-05 14:03:31.864,0.8111405,0.18511117,0.43620417,0.5396081,0.34396076,0,813.91943,822.381,851.39197,784.90845
2022-07-05 14:03:31.865,0.8111405,0.18511117,0.43620417,0.5396081,0.34396076,0,809.0842,807.8755,871.13556,804.2491
2022-07-05 14:03:31.865,0.8111405,0.18511117,0.43620417,0.5396081,0.34396076,0,805.4579,801.8315,878.3883,821.5751
2022-07-05 14:03:31.866,0.8111405,0.18511117,0.43620417,0.5396081,0.34396076,0,806.26373,821.978,865.09155,799.011
2022-07-05 14:03:31.866,0.8111405,0.18511117,0.43620417,0.5396081,0.34396076,0,803.0403,817.5458,861.06226,782.8938
2022-07-05 14:03:31.866,0.8111405,0.18511117,0.43620417,0.5396081,0.34396076,0,802.6374,809.4872,877.5824,803.0403
2022-07-05 14:03:31.867,0.8111405,0.18511117,0.43620417,0.5396081,0.34396076,0,804.65204,805.05493,886.4469,822.7839
2022-07-05 14:03:31.867,0.8111405,0.18511117,0.43620417,0.5396081,0.34396076,0,809.89014,808.68134,875.56775,809.4872
2022-07-05 14:03:31.868,0.8111405,0.18511117,0.43620417,0.5396081,0.34396076,0,807.0696,819.5604,865.89746,790.9524
2022-07-05 14:03:31.893,0.8111405,0.18511117,0.43620417,0.5396081,0.34396076,0,802.6374,813.1135,874.35895,801.8315
2022-07-05 14:03:31.894,0.8111405,0.18511117,0.43620417,0.5396081,0.34396076,0,817.5458,802.6374,884.83514,830.84247
2022-07-05 14:03:31.894,0.8111405,0.18511117,0.43620417,0.5396081,0.34396076,0,815.9341,805.4579,876.3736,820.3663
2022-07-05 14:03:31.894,0.8111405,0.18511117,0.43620417,0.5396081,0.34396076,0,801.8315,821.5751,865.09155,787.326
2022-07-05 14:03:31.894,0.8111405,0.18511117,0.43620417,0.5396081,0.34396076,0,800.6227,818.3516,869.12085,782.49084
2022-07-05 14:03:31.895,0.8111405,0.18511117,0.43620417,0.5396081,0.34396076,0,806.6667,819.9634,883.6264,811.50183
2022-07-05 14:03:31.895,0.8111405,0.18511117,0.43620417,0.5396081,0.34396076,0,815.5311,825.2015,880.40295,829.6337
2022-07-05 14:03:31.896,0.8111405,0.18511117,0.43620417,0.5396081,0.34396076,0,813.91943,805.8608,860.2564,793.36993
2022-07-05 14:03:31.896,0.8111405,0.18511117,0.43620417,0.5396081,0.34396076,0,808.68134,805.05493,866.30035,773.22345
2022-07-05 14:03:31.896,0.8111405,0.18511117,0.43620417,0.5396081,0.34396076,0,801.8315,796.99634,877.1795,796.1905
2022-07-05 14:03:31.896,0.8111405,0.18511117,0.43620417,0.5396081,0.34396076,0,807.47253,789.34064,873.5531,815.9341
2022-07-05 14:03:31.897,0.8111405,0.18511117,0.43620417,0.5396081,0.34396076,0,809.89014,821.1722,869.5238,799.81683
2022-07-05 14:03:31.917,0.8111405,0.18511117,0.43620417,0.5396081,0.34396076,0,802.23444,828.4249,865.89746,780.4762
2022-07-05 14:03:31.918,0.8111405,0.18511117,0.43620417,0.5396081,0.34396076,0,810.293,809.4872,870.32965,797.3993
2022-07-05 14:03:31.918,0.8111405,0.18511117,0.43620417,0.5396081,0.34396076,0,815.5311,801.4286,873.95605,825.2015
2022-07-05 14:03:31.918,0.8111405,0.18511117,0.43620417,0.5396081,0.34396076,0,808.2784,812.71063,871.13556,812.71063
2022-07-05 14:03:31.918,0.8111405,0.18511117,0.43620417,0.5396081,0.34396076,0,805.4579,826.8132,872.74725,786.52014
2022-07-05 14:03:31.919,0.8111405,0.18511117,0.43620417,0.5396081,0.34396076,0,804.2491,834.87177,881.2088,792.5641
2022-07-05 14:03:31.919,0.8111405,0.18511117,0.43620417,0.5396081,0.34396076,0,815.12823,824.7985,896.9231,836.08057
2022-07-05 14:03:31.919,0.8111405,0.18511117,0.43620417,0.5396081,0.34396076,0,823.1868,807.47253,884.83514,835.2747
2022-07-05 14:03:31.919,0.8111405,0.18511117,0.43620417,0.5396081,0.34396076,0,812.3077,824.7985,860.2564,786.1172
2022-07-05 14:03:31.919,0.8111405,0.18511117,0.43620417,0.5396081,0.34396076,0,790.54944,815.12823,861.4652,761.9414
2022-07-05 14:03:31.920,0.8111405,0.18511117,0.43620417,0.5396081,0.34396076,0,790.14655,786.1172,871.13556,798.20514
2022-07-05 14:03:31.920,0.8111405,0.18511117,0.43620417,0.5396081,0.34396076,0,809.89014,801.8315,867.50916,826.4103
2022-07-05 14:03:32.013,0.8111405,0.18511117,0.43620417,0.5396081,0.34396076,0,804.2491,837.28937,851.79486,791.75824
2022-07-05 14:03:32.014,0.8111405,0.18511117,0.43620417,0.5396081,0.34396076,0,790.9524,838.9011,840.5128,768.7912
2022-07-05 14:03:32.014,0.8111405,0.18511117,0.43620417,0.5396081,0.34396076,0,785.7143,824.3956,845.34796,785.7143
2022-07-05 14:03:32.015,0.8111405,0.18511117,0.43620417,0.5396081,0.34396076,0,786.9231,815.9341,842.9304,801.8315
2022-07-05 14:03:32.015,0.8111405,0.18511117,0.43620417,0.5396081,0.34396076,0,791.3553,824.3956,822.381,778.46155
2022-07-05 14:03:32.015,0.8111405,0.18511117,0.43620417,0.5396081,0.34396076,0,788.1319,846.9597,821.1722,753.0769
2022-07-05 14:03:32.016,0.8111405,0.18511117,0.43620417,0.5396081,0.34396076,0,782.49084,839.707,832.0513,761.13556
2022-07-05 14:03:32.016,0.8111405,0.18511117,0.43620417,0.5396081,0.34396076,0,782.8938,806.6667,834.4689,790.54944
2022-07-05 14:03:32.017,0.8111405,0.18511117,0.43620417,0.5396081,0.34396076,0,776.8498,811.9048,830.84247,781.685
2022-07-05 14:03:32.018,0.8111405,0.18511117,0.43620417,0.5396081,0.34396076,0,774.83514,838.9011,821.1722,749.0476
2022-07-05 14:03:32.018,0.8111405,0.18511117,0.43620417,0.5396081,0.34396076,0,773.22345,827.619,815.5311,743.4066
2022-07-05 14:03:32.018,0.8111405,0.18511117,0.43620417,0.5396081,0.34396076,0,777.6557,802.6374,821.978,768.3883
2022-07-05 14:03:32.072,0.8111405,0.18511117,0.43620417,0.5396081,0.34396076,0,784.5055,813.91943,826.0073,775.64105
2022-07-05 14:03:32.073,0.8111405,0.18511117,0.43620417,0.5396081,0.34396076,0,778.46155,834.0659,819.15753,748.6447
2022-07-05 14:03:32.073,0.8111405,0.18511117,0.43620417,0.5396081,0.34396076,0,777.6557,829.2308,823.5897,743.00366
2022-07-05 14:03:32.073,0.8111405,0.18511117,0.43620417,0.5396081,0.34396076,0,782.49084,816.7399,837.6923,778.0586
2022-07-05 14:03:32.074,0.8111405,0.18511117,0.43620417,0.5396081,0.34396076,0,783.69965,813.1135,840.5128,796.1905
2022-07-05 14:03:32.074,0.8111405,0.18511117,0.43620417,0.5396081,0.34396076,0,784.90845,840.9158,827.2161,770
2022-07-05 14:03:32.074,0.8111405,0.18511117,0.43620417,0.5396081,0.34396076,0,784.90845,861.06226,819.5604,755.09155
2022-07-05 14:03:32.075,0.8111405,0.18511117,0.43620417,0.5396081,0.34396076,0,789.7436,832.0513,832.4542,778.86444
2022-07-05 14:03:32.075,0.8111405,0.18511117,0.43620417,0.5396081,0.34396076,0,798.60803,798.60803,838.9011,804.2491
2022-07-05 14:03:32.075,0.8111405,0.18511117,0.43620417,0.5396081,0.34396076,0,794.57874,803.8461,823.5897,784.10254
2022-07-05 14:03:32.075,0.8111405,0.18511117,0.43620417,0.5396081,0.34396076,0,785.31134,813.5165,820.3663,759.92676
2022-07-05 14:03:32.076,0.8111405,0.18511117,0.43620417,0.5396081,0.34396076,0,786.1172,802.6374,830.4396,777.25275
2022-07-05 14:03:32.076,0.8111405,0.18511117,0.43620417,0.5396081,0.34396076,0,793.7729,797.3993,833.2601,808.68134
2022-07-05 14:03:32.077,0.8111405,0.18511117,0.43620417,0.5396081,0.34396076,0,801.8315,810.293,827.619,805.05493
2022-07-05 14:03:32.077,0.8111405,0.18511117,0.43620417,0.5396081,0.34396076,0,801.8315,826.8132,819.5604,776.4469
2022-07-05 14:03:32.077,0.8111405,0.18511117,0.43620417,0.5396081,0.34396076,0,801.4286,833.2601,822.381,776.04395
2022-07-05 14:03:32.077,0.8111405,0.18511117,0.43620417,0.5396081,0.34396076,0,811.0989,813.91943,828.4249,804.65204
2022-07-05 14:03:32.078,0.8111405,0.18511117,0.43620417,0.5396081,0.34396076,0,814.7253,813.5165,827.619,806.26373
2022-07-05 14:03:32.078,0.8111405,0.18511117,0.43620417,0.5396081,0.34396076,0,816.337,834.4689,819.9634,783.69965
2022-07-05 14:03:32.078,0.8111405,0.18511117,0.43620417,0.5396081,0.34396076,0,815.9341,823.9927,829.6337,779.67035
2022-07-05 14:03:32.079,0.8111405,0.18511117,0.43620417,0.5396081,0.34396076,0,819.5604,809.4872,845.34796,802.6374
2022-07-05 14:03:32.079,0.8111405,0.18511117,0.43620417,0.5396081,0.34396076,0,831.2454,814.7253,841.7216,821.5751
2022-07-05 14:03:32.080,0.8111405,0.18511117,0.43620417,0.5396081,0.34396076,0,823.9927,821.978,825.6044,797.3993
2022-07-05 14:03:32.080,0.8111405,0.18511117,0.43620417,0.5396081,0.34396076,0,812.71063,809.89014,820.7692,779.67035
2022-07-05 14:03:32.138,0.8111405,0.18511117,0.43620417,0.5396081,0.34396076,0,817.5458,793.36993,831.2454,802.6374
2022-07-05 14:03:32.139,0.8111405,0.18511117,0.43620417,0.5396081,0.34396076,0,829.2308,793.7729,843.3333,832.0513
2022-07-05 14:03:32.139,0.8111405,0.18511117,0.43620417,0.5396081,0.34396076,0,823.9927,811.50183,833.663,814.7253
2022-07-05 14:03:32.140,0.8111405,0.18511117,0.43620417,0.5396081,0.34396076,0,816.337,823.1868,819.9634,786.52014
2022-07-05 14:03:32.140,0.8111405,0.18511117,0.43620417,0.5396081,0.34396076,0,814.7253,817.9487,826.8132,791.3553
2022-07-05 14:03:32.141,0.8111405,0.18511117,0.43620417,0.5396081,0.34396076,0,818.3516,808.68134,837.28937,819.9634
2022-07-05 14:03:32.141,0.8111405,0.18511117,0.43620417,0.5396081,0.34396076,0,819.5604,813.5165,829.6337,822.7839
2022-07-05 14:03:32.141,0.8111405,0.18511117,0.43620417,0.5396081,0.34396076,0,814.3223,812.71063,815.9341,794.9817
2022-07-05 14:03:32.142,0.8111405,0.18511117,0.43620417,0.5396081,0.34396076,0,815.12823,807.0696,823.9927,793.7729
2022-07-05 14:03:32.142,0.8111405,0.18511117,0.43620417,0.5396081,0.34396076,0,819.15753,799.41394,832.4542,820.7692
2022-07-05 14:03:32.142,0.8111405,0.18511117,0.43620417,0.5396081,0.34396076,0,820.3663,797.3993,826.8132,825.2015
2022-07-05 14:03:32.143,0.8111405,0.18511117,0.43620417,0.5396081,0.34396076,0,811.9048,813.1135,818.3516,796.1905
2022-07-05 14:03:32.171,0.8111405,0.18511117,0.43620417,0.5396081,0.34396076,0,804.2491,799.41394,819.5604,778.0586
2022-07-05 14:03:32.172,0.8111405,0.18511117,0.43620417,0.5396081,0.34396076,0,808.2784,782.49084,836.8865,801.02563
2022-07-05 14:03:32.172,0.8111405,0.18511117,0.43620417,0.5396081,0.34396076,0,808.2784,781.685,832.8571,823.5897
2022-07-05 14:03:32.172,0.8111405,0.18511117,0.43620417,0.5396081,0.34396076,0,799.41394,787.72894,813.5165,799.011
2022-07-05 14:03:32.172,0.8111405,0.18511117,0.43620417,0.5396081,0.34396076,0,801.02563,805.8608,813.5165,784.5055
2022-07-05 14:03:32.173,0.8111405,0.18511117,0.43620417,0.5396081,0.34396076,0,808.2784,810.293,828.8278,806.26373
2022-07-05 14:03:32.173,0.8111405,0.18511117,0.43620417,0.5396081,0.34396076,0,809.89014,799.011,837.6923,833.2601
2022-07-05 14:03:32.173,0.8111405,0.18511117,0.43620417,0.5396081,0.34396076,0,799.011,788.1319,823.5897,819.15753
2022-07-05 14:03:32.174,0.8111405,0.18511117,0.43620417,0.5396081,0.34396076,0,795.38464,798.60803,808.2784,787.326
2022-07-05 14:03:32.174,0.8111405,0.18511117,0.43620417,0.5396081,0.34396076,0,803.8461,809.4872,815.9341,792.96704
2022-07-05 14:03:32.174,0.8111405,0.18511117,0.43620417,0.5396081,0.34396076,0,811.50183,801.02563,828.4249,821.1722
2022-07-05 14:03:32.175,0.8111405,0.18511117,0.43620417,0.5396081,0.34396076,0,814.3223,795.78754,818.7546,816.337
2022-07-05 14:03:32.238,0.8111405,0.18511117,0.43620417,0.5396081,0.34396076,0,804.65204,807.8755,799.81683,783.2967
2022-07-05 14:03:32.239,0.8111405,0.18511117,0.43620417,0.5396081,0.34396076,0,799.81683,815.12823,803.8461,776.04395
2022-07-05 14:03:32.239,0.8111405,0.18511117,0.43620417,0.5396081,0.34396076,0,809.4872,811.9048,821.1722,806.6667
2022-07-05 14:03:32.239,0.8111405,0.18511117,0.43620417,0.5396081,0.34396076,0,815.5311,800.6227,818.3516,820.3663
2022-07-05 14:03:32.240,0.8111405,0.18511117,0.43620417,0.5396081,0.34396076,0,807.0696,802.23444,803.0403,786.9231
2022-07-05 14:03:32.240,0.8111405,0.18511117,0.43620417,0.5396081,0.34396076,0,805.05493,819.15753,804.65204,773.22345
2022-07-05 14:03:32.240,0.8111405,0.18511117,0.43620417,0.5396081,0.34396076,0,811.9048,823.9927,821.978,800.2198
2022-07-05 14:03:32.241,0.8111405,0.18511117,0.43620417,0.5396081,0.34396076,0,810.293,805.8608,827.2161,821.5751
2022-07-05 14:03:32.241,0.8111405,0.18511117,0.43620417,0.5396081,0.34396076,0,806.6667,799.011,812.71063,798.60803
2022-07-05 14:03:32.241,0.8111405,0.18511117,0.43620417,0.5396081,0.34396076,0,808.2784,813.1135,808.68134,776.8498
2022-07-05 14:03:32.242,0.8111405,0.18511117,0.43620417,0.5396081,0.34396076,0,812.71063,819.5604,818.3516,794.17584
2022-07-05 14:03:32.242,0.8111405,0.18511117,0.43620417,0.5396081,0.34396076,0,815.9341,810.293,826.8132,821.5751
2022-07-05 14:03:32.272,0.8111405,0.18511117,0.43620417,0.5396081,0.34396076,0,810.293,814.7253,818.3516,814.7253
2022-07-05 14:03:32.273,0.8111405,0.18511117,0.43620417,0.5396081,0.34396076,0,805.05493,819.5604,807.0696,794.57874
2022-07-05 14:03:32.273,0.8111405,0.18511117,0.43620417,0.5396081,0.34396076,0,803.8461,813.91943,815.12823,797.8022
2022-07-05 14:03:32.274,0.8111405,0.18511117,0.43620417,0.5396081,0.34396076,0,807.47253,809.4872,830.4396,825.2015
2022-07-05 14:03:32.274,0.8111405,0.18511117,0.43620417,0.5396081,0.34396076,0,807.0696,820.3663,826.4103,833.2601
2022-07-05 14:03:32.274,0.8111405,0.18511117,0.43620417,0.5396081,0.34396076,0,794.17584,841.7216,808.2784,796.5934
2022-07-05 14:03:32.275,0.8111405,0.18511117,0.43620417,0.5396081,0.34396076,0,785.7143,832.4542,808.68134,785.7143
2022-07-05 14:03:32.275,0.8111405,0.18511117,0.43620417,0.5396081,0.34396076,0,794.17584,801.4286,820.3663,817.5458
2022-07-05 14:03:32.276,0.8111405,0.18511117,0.43620417,0.5396081,0.34396076,0,802.23444,789.7436,820.3663,829.2308
2022-07-05 14:03:32.276,0.8111405,0.18511117,0.43620417,0.5396081,0.34396076,0,798.20514,811.50183,812.3077,801.02563
2022-07-05 14:03:32.276,0.8111405,0.18511117,0.43620417,0.5396081,0.34396076,0,796.5934,820.3663,807.8755,783.2967
2022-07-05 14:03:32.277,0.8111405,0.18511117,0.43620417,0.5396081,0.34396076,0,800.2198,811.9048,819.15753,806.26373
2022-07-05 14:03:32.338,0.8111405,0.18511117,0.43620417,0.5396081,0.34396076,0,811.0989,810.293,827.619,837.28937
2022-07-05 14:03:32.339,0.8111405,0.18511117,0.43620417,0.5396081,0.34396076,0,811.0989,817.1429,816.337,819.15753
2022-07-05 14:03:32.340,0.8111405,0.18511117,0.43620417,0.5396081,0.34396076,0,803.44324,822.381,800.6227,788.1319
2022-07-05 14:03:32.341,0.8111405,0.18511117,0.43620417,0.5396081,0.34396076,0,798.60803,811.50183,801.4286,794.9817
2022-07-05 14:03:32.341,0.8111405,0.18511117,0.43620417,0.5396081,0.34396076,0,802.23444,799.81683,814.3223,820.7692
2022-07-05 14:03:32.341,0.8111405,0.18511117,0.43620417,0.5396081,0.34396076,0,807.47253,816.337,807.0696,817.1429
2022-07-05 14:03:32.342,0.8111405,0.18511117,0.43620417,0.5396081,0.34396076,0,800.6227,826.8132,791.3553,789.7436
2022-07-05 14:03:32.342,0.8111405,0.18511117,0.43620417,0.5396081,0.34396076,0,799.81683,815.5311,799.011,780.87915
2022-07-05 14:03:32.342,0.8111405,0.18511117,0.43620417,0.5396081,0.34396076,0,807.0696,811.0989,813.91943,813.1135
2022-07-05 14:03:32.343,0.8111405,0.18511117,0.43620417,0.5396081,0.34396076,0,806.26373,804.65204,809.4872,824.3956
2022-07-05 14:03:32.343,0.8111405,0.18511117,0.43620417,0.5396081,0.34396076,0,803.44324,814.3223,792.1612,791.3553
2022-07-05 14:03:32.343,0.8111405,0.18511117,0.43620417,0.5396081,0.34396076,0,801.8315,821.5751,789.34064,776.04395
2022-07-05 14:03:32.372,0.8111405,0.18511117,0.43620417,0.5396081,0.34396076,0,802.6374,807.8755,813.91943,796.1905
2022-07-05 14:03:32.372,0.8111405,0.18511117,0.43620417,0.5396081,0.34396076,0,809.0842,803.0403,823.1868,817.5458
2022-07-05 14:03:32.373,0.8111405,0.18511117,0.43620417,0.5396081,0.34396076,0,800.6227,818.7546,799.41394,793.7729
2022-07-05 14:03:32.373,0.8111405,0.18511117,0.43620417,0.5396081,0.34396076,0,792.5641,823.5897,790.14655,770
2022-07-05 14:03:32.373,0.8111405,0.18511117,0.43620417,0.5396081,0.34396076,0,792.1612,803.44324,807.47253,788.93774
2022-07-05 14:03:32.373,0.8111405,0.18511117,0.43620417,0.5396081,0.34396076,0,795.78754,800.6227,821.5751,815.5311
2022-07-05 14:03:32.374,0.8111405,0.18511117,0.43620417,0.5396081,0.34396076,0,795.38464,812.3077,808.2784,803.44324
2022-07-05 14:03:32.374,0.8111405,0.18511117,0.43620417,0.5396081,0.34396076,0,786.1172,818.7546,788.1319,779.67035
2022-07-05 14:03:32.374,0.8111405,0.18511117,0.43620417,0.5396081,0.34396076,0,788.93774,815.9341,794.9817,788.93774
2022-07-05 14:03:32.375,0.8111405,0.18511117,0.43620417,0.5396081,0.34396076,0,803.44324,807.8755,819.15753,821.5751
2022-07-05 14:03:32.375,0.8111405,0.18511117,0.43620417,0.5396081,0.34396076,0,805.8608,821.5751,819.5604,822.7839
2022-07-05 14:03:32.375,0.8111405,0.18511117,0.43620417,0.5396081,0.34396076,0,801.02563,828.8278,807.47253,796.99634
2022-07-05 14:03:32.405,0.8111405,0.18511117,0.43620417,0.5396081,0.34396076,0,799.011,827.619,811.50183,798.60803
2022-07-05 14:03:32.406,0.8111405,0.18511117,0.43620417,0.5396081,0.34396076,0,810.696,832.8571,830.84247,828.8278
2022-07-05 14:03:32.406,0.8111405,0.18511117,0.43620417,0.5396081,0.34396076,0,819.9634,823.9927,834.4689,842.1245
2022-07-05 14:03:32.407,0.8111405,0.18511117,0.43620417,0.5396081,0.34396076,0,810.293,816.7399,801.02563,809.89014
2022-07-05 14:03:32.408,0.8111405,0.18511117,0.43620417,0.5396081,0.34396076,0,809.89014,821.1722,790.54944,796.5934
2022-07-05 14:03:32.409,0.8111405,0.18511117,0.43620417,0.5396081,0.34396076,0,815.5311,823.9927,808.2784,817.5458
2022-07-05 14:03:32.409,0.8111405,0.18511117,0.43620417,0.5396081,0.34396076,0,816.7399,817.5458,809.89014,832.8571
2022-07-05 14:03:32.409,0.8111405,0.18511117,0.43620417,0.5396081,0.34396076,0,814.7253,811.50183,788.5348,807.0696
2022-07-05 14:03:32.410,0.8111405,0.18511117,0.43620417,0.5396081,0.34396076,0,825.2015,812.71063,774.83514,787.326
2022-07-05 14:03:32.410,0.8111405,0.18511117,0.43620417,0.5396081,0.34396076,0,840.5128,815.9341,799.41394,816.7399
2022-07-05 14:03:32.410,0.8111405,0.18511117,0.43620417,0.5396081,0.34396076,0,833.2601,809.89014,830.84247,844.1392
2022-07-05 14:03:32.411,0.8111405,0.18511117,0.43620417,0.5396081,0.34396076,0,813.91943,808.68134,816.7399,819.15753
2022-07-05 14:03:32.472,0.8111405,0.18511117,0.43620417,0.5396081,0.34396076,0,808.2784,812.71063,794.17584,792.1612
2022-07-05 14:03:32.473,0.8111405,0.18511117,0.43620417,0.5396081,0.34396076,0,820.3663,821.1722,811.9048,807.0696
2022-07-05 14:03:32.473,0.8111405,0.18511117,0.43620417,0.5396081,0.34396076,0,838.49817,824.7985,834.87177,838.49817
2022-07-05 14:03:32.473,0.8111405,0.18511117,0.43620417,0.5396081,0.34396076,0,834.0659,814.3223,828.8278,837.6923
2022-07-05 14:03:32.473,0.8111405,0.18511117,0.43620417,0.5396081,0.34396076,0,821.978,825.6044,815.5311,803.8461
2022-07-05 14:03:32.474,0.8111405,0.18511117,0.43620417,0.5396081,0.34396076,0,819.15753,844.5421,826.8132,797.8022
2022-07-05 14:03:32.474,0.8111405,0.18511117,0.43620417,0.5396081,0.34396076,0,819.5604,830.0366,849.7802,833.663
2022-07-05 14:03:32.474,0.8111405,0.18511117,0.43620417,0.5396081,0.34396076,0,819.9634,803.44324,847.76556,846.55676
2022-07-05 14:03:32.475,0.8111405,0.18511117,0.43620417,0.5396081,0.34396076,0,819.15753,802.6374,832.8571,818.3516
2022-07-05 14:03:32.475,0.8111405,0.18511117,0.43620417,0.5396081,0.34396076,0,811.9048,811.50183,822.381,798.20514
2022-07-05 14:03:32.475,0.8111405,0.18511117,0.43620417,0.5396081,0.34396076,0,801.8315,801.8315,834.87177,820.7692
2022-07-05 14:03:32.476,0.8111405,0.18511117,0.43620417,0.5396081,0.34396076,0,814.3223,795.78754,844.1392,849.3773
2022-07-05 14:03:32.505,0.8111405,0.18511117,0.43620417,0.5396081,0.34396076,0,810.293,812.71063,823.5897,823.1868
2022-07-05 14:03:32.506,0.8111405,0.18511117,0.43620417,0.5396081,0.34396076,0,791.75824,821.5751,813.5165,792.5641
2022-07-05 14:03:32.506,0.8111405,0.18511117,0.43620417,0.5396081,0.34396076,0,797.3993,821.978,832.8571,806.26373
2022-07-05 14:03:32.507,0.8111405,0.18511117,0.43620417,0.5396081,0.34396076,0,815.12823,815.12823,852.6007,840.9158
2022-07-05 14:03:32.507,0.8111405,0.18511117,0.43620417,0.5396081,0.34396076,0,814.3223,820.7692,841.31866,834.0659
2022-07-05 14:03:32.507,0.8111405,0.18511117,0.43620417,0.5396081,0.34396076,0,800.2198,836.08057,813.91943,796.1905
2022-07-05 14:03:32.509,0.8111405,0.18511117,0.43620417,0.5396081,0.34396076,0,796.99634,831.2454,816.7399,796.1905
2022-07-05 14:03:32.509,0.8111405,0.18511117,0.43620417,0.5396081,0.34396076,0,805.05493,815.9341,836.4835,828.022
2022-07-05 14:03:32.509,0.8111405,0.18511117,0.43620417,0.5396081,0.34396076,0,809.4872,803.8461,832.4542,825.2015
2022-07-05 14:03:32.509,0.8111405,0.18511117,0.43620417,0.5396081,0.34396076,0,803.44324,805.8608,818.3516,793.7729
2022-07-05 14:03:32.510,0.8111405,0.18511117,0.43620417,0.5396081,0.34396076,0,803.8461,811.50183,818.7546,790.54944
2022-07-05 14:03:32.510,0.8111405,0.18511117,0.43620417,0.5396081,0.34396076,0,817.1429,810.293,835.2747,821.1722
2022-07-05 14:03:32.539,0.8111405,0.18511117,0.43620417,0.5396081,0.34396076,0,820.7692,810.696,838.0952,844.94507
2022-07-05 14:03:32.540,0.8111405,0.18511117,0.43620417,0.5396081,0.34396076,0,805.8608,821.1722,817.9487,818.3516
2022-07-05 14:03:32.540,0.8111405,0.18511117,0.43620417,0.5396081,0.34396076,0,796.99634,824.7985,810.293,794.17584
2022-07-05 14:03:32.540,0.8111405,0.18511117,0.43620417,0.5396081,0.34396076,0,798.60803,819.9634,824.3956,814.7253
2022-07-05 14:03:32.541,0.8111405,0.18511117,0.43620417,0.5396081,0.34396076,0,803.8461,816.337,830.84247,837.6923
2022-07-05 14:03:32.541,0.8111405,0.18511117,0.43620417,0.5396081,0.34396076,0,807.47253,827.619,819.15753,822.7839
2022-07-05 14:03:32.541,0.8111405,0.18511117,0.43620417,0.5396081,0.34396076,0,807.8755,835.6777,805.8608,798.20514
2022-07-05 14:03:32.541,0.8111405,0.18511117,0.43620417,0.5396081,0.34396076,0,813.91943,832.0513,815.5311,805.05493
2022-07-05 14:03:32.542,0.8111405,0.18511117,0.43620417,0.5396081,0.34396076,0,829.2308,818.7546,835.2747,837.6923
2022-07-05 14:03:32.542,0.8111405,0.18511117,0.43620417,0.5396081,0.34396076,0,830.4396,807.8755,828.8278,834.0659
2022-07-05 14:03:32.542,0.8111405,0.18511117,0.43620417,0.5396081,0.34396076,0,819.5604,817.9487,810.293,799.81683
2022-07-05 14:03:32.543,0.8111405,0.18511117,0.43620417,0.5396081,0.34396076,0,814.7253,824.3956,816.337,797.8022
2022-07-05 14:03:32.605,0.8111405,0.18511117,0.43620417,0.5396081,0.34396076,0,818.7546,815.5311,838.9011,829.2308
2022-07-05 14:03:32.606,0.8111405,0.18511117,0.43620417,0.5396081,0.34396076,0,820.7692,816.337,837.6923,836.8865
2022-07-05 14:03:32.606,0.8111405,0.18511117,0.43620417,0.5396081,0.34396076,0,806.6667,832.4542,811.9048,798.20514
2022-07-05 14:03:32.607,0.8111405,0.18511117,0.43620417,0.5396081,0.34396076,0,800.2198,840.5128,804.65204,780.87915
2022-07-05 14:03:32.607,0.8111405,0.18511117,0.43620417,0.5396081,0.34396076,0,809.4872,829.2308,827.2161,809.89014
2022-07-05 14:03:32.607,0.8111405,0.18511117,0.43620417,0.5396081,0.34396076,0,815.9341,829.2308,835.2747,828.022
2022-07-05 14:03:32.607,0.8111405,0.18511117,0.43620417,0.5396081,0.34396076,0,811.0989,843.3333,820.3663,801.4286
2022-07-05 14:03:32.608,0.8111405,0.18511117,0.43620417,0.5396081,0.34396076,0,799.41394,825.6044,808.68134,774.43225
2022-07-05 14:03:32.609,0.8111405,0.18511117,0.43620417,0.5396081,0.34396076,0,791.3553,811.9048,819.5604,787.72894
2022-07-05 14:03:32.609,0.8111405,0.18511117,0.43620417,0.5396081,0.34396076,0,796.1905,810.293,822.7839,810.696
2022-07-05 14:03:32.610,0.8111405,0.18511117,0.43620417,0.5396081,0.34396076,0,791.75824,825.6044,814.7253,793.36993
2022-07-05 14:03:32.610,0.8111405,0.18511117,0.43620417,0.5396081,0.34396076,0,784.10254,840.10986,819.15753,765.9707
2022-07-05 14:03:32.638,0.8111405,0.18511117,0.43620417,0.5396081,0.34396076,0,785.7143,826.4103,832.8571,770
2022-07-05 14:03:32.639,0.8111405,0.18511117,0.43620417,0.5396081,0.34396076,0,787.72894,831.6484,838.9011,801.8315
2022-07-05 14:03:32.639,0.8111405,0.18511117,0.43620417,0.5396081,0.34396076,0,787.326,836.4835,827.2161,798.60803
2022-07-05 14:03:32.640,0.8111405,0.18511117,0.43620417,0.5396081,0.34396076,0,781.685,822.381,816.7399,766.3736
2022-07-05 14:03:32.640,0.8111405,0.18511117,0.43620417,0.5396081,0.34396076,0,781.28204,811.0989,817.5458,764.7619
2022-07-05 14:03:32.640,0.8111405,0.18511117,0.43620417,0.5396081,0.34396076,0,788.5348,812.3077,830.0366,799.011
2022-07-05 14:03:32.641,0.8111405,0.18511117,0.43620417,0.5396081,0.34396076,0,806.26373,815.12823,837.28937,821.5751
2022-07-05 14:03:32.641,0.8111405,0.18511117,0.43620417,0.5396081,0.34396076,0,792.96704,808.68134,823.1868,783.2967
2022-07-05 14:03:32.641,0.8111405,0.18511117,0.43620417,0.5396081,0.34396076,0,771.6117,817.9487,825.6044,758.71796
2022-07-05 14:03:32.641,0.8111405,0.18511117,0.43620417,0.5396081,0.34396076,0,779.67035,807.8755,847.3626,795.38464
2022-07-05 14:03:32.642,0.8111405,0.18511117,0.43620417,0.5396081,0.34396076,0,788.93774,798.60803,844.1392,822.381
2022-07-05 14:03:32.642,0.8111405,0.18511117,0.43620417,0.5396081,0.34396076,0,788.93774,805.4579,824.7985,804.65204
2022-07-05 14:03:32.706,0.8111405,0.18511117,0.43620417,0.5396081,0.34396076,0,789.7436,817.5458,822.7839,786.1172
2022-07-05 14:03:32.707,0.8111405,0.18511117,0.43620417,0.5396081,0.34396076,0,795.38464,823.5897,838.9011,798.20514
2022-07-05 14:03:32.707,0.8111405,0.18511117,0.43620417,0.5396081,0.34396076,0,809.4872,800.2198,848.5714,829.2308
2022-07-05 14:03:32.708,0.8111405,0.18511117,0.43620417,0.5396081,0.34396076,0,816.7399,797.3993,832.4542,816.7399
2022-07-05 14:03:32.708,0.8111405,0.18511117,0.43620417,0.5396081,0.34396076,0,811.50183,814.7253,817.1429,781.28204
2022-07-05 14:03:32.708,0.8111405,0.18511117,0.43620417,0.5396081,0.34396076,0,806.26373,833.2601,826.0073,781.28204
2022-07-05 14:03:32.709,0.8111405,0.18511117,0.43620417,0.5396081,0.34396076,0,813.5165,833.663,842.1245,821.1722
2022-07-05 14:03:32.709,0.8111405,0.18511117,0.43620417,0.5396081,0.34396076,0,818.7546,817.1429,835.6777,829.2308
2022-07-05 14:03:32.709,0.8111405,0.18511117,0.43620417,0.5396081,0.34396076,0,806.26373,822.381,817.1429,796.1905
2022-07-05 14:03:32.710,0.8111405,0.18511117,0.43620417,0.5396081,0.34396076,0,805.05493,828.8278,822.381,793.36993
2022-07-05 14:03:32.711,0.8111405,0.18511117,0.43620417,0.5396081,0.34396076,0,812.71063,822.7839,843.3333,828.4249
2022-07-05 14:03:32.711,0.8111405,0.18511117,0.43620417,0.5396081,0.34396076,0,814.7253,814.7253,838.0952,842.9304
2022-07-05 14:03:32.764,0.8111405,0.18511117,0.43620417,0.5396081,0.34396076,0,811.0989,817.5458,816.337,809.0842
2022-07-05 14:03:32.765,0.8111405,0.18511117,0.43620417,0.5396081,0.34396076,0,805.4579,827.619,817.5458,788.5348
2022-07-05 14:03:32.765,0.8111405,0.18511117,0.43620417,0.5396081,0.34396076,0,809.4872,819.9634,835.2747,811.50183
2022-07-05 14:03:32.766,0.8111405,0.18511117,0.43620417,0.5396081,0.34396076,0,818.3516,806.6667,844.1392,839.707
2022-07-05 14:03:32.766,0.8111405,0.18511117,0.43620417,0.5396081,0.34396076,0,813.91943,828.8278,831.6484,816.7399
2022-07-05 14:03:32.766,0.8111405,0.18511117,0.43620417,0.5396081,0.34396076,0,798.60803,842.1245,815.5311,784.90845
2022-07-05 14:03:32.767,0.8111405,0.18511117,0.43620417,0.5396081,0.34396076,0,791.3553,819.15753,821.978,798.20514
2022-07-05 14:03:32.767,0.8111405,0.18511117,0.43620417,0.5396081,0.34396076,0,798.60803,800.2198,833.663,830.0366
2022-07-05 14:03:32.767,0.8111405,0.18511117,0.43620417,0.5396081,0.34396076,0,801.02563,809.89014,829.2308,822.7839
2022-07-05 14:03:32.768,0.8111405,0.18511117,0.43620417,0.5396081,0.34396076,0,794.17584,829.2308,820.7692,799.81683
2022-07-05 14:03:32.768,0.8111405,0.18511117,0.43620417,0.5396081,0.34396076,0,796.1905,828.4249,828.022,802.23444
2022-07-05 14:03:32.768,0.8111405,0.18511117,0.43620417,0.5396081,0.34396076,0,798.60803,820.7692,838.0952,821.978
2022-07-05 14:03:32.797,0.8111405,0.18511117,0.43620417,0.5396081,0.34396076,0,791.75824,810.696,824.3956,819.15753
2022-07-05 14:03:32.798,0.8111405,0.18511117,0.43620417,0.5396081,0.34396076,0,779.67035,805.4579,802.6374,784.5055
2022-07-05 14:03:32.798,0.8111405,0.18511117,0.43620417,0.5396081,0.34396076,0,779.67035,818.7546,808.68134,781.685
2022-07-05 14:03:32.799,0.8111405,0.18511117,0.43620417,0.5396081,0.34396076,0,784.90845,810.293,822.381,809.89014
2022-07-05 14:03:32.799,0.8111405,0.18511117,0.43620417,0.5396081,0.34396076,0,788.5348,801.02563,815.9341,820.7692
2022-07-05 14:03:32.799,0.8111405,0.18511117,0.43620417,0.5396081,0.34396076,0,793.36993,832.0513,809.4872,799.81683
2022-07-05 14:03:32.799,0.8111405,0.18511117,0.43620417,0.5396081,0.34396076,0,792.5641,840.10986,808.68134,780.4762
2022-07-05 14:03:32.800,0.8111405,0.18511117,0.43620417,0.5396081,0.34396076,0,788.5348,818.3516,814.7253,795.78754
2022-07-05 14:03:32.800,0.8111405,0.18511117,0.43620417,0.5396081,0.34396076,0,795.38464,799.81683,818.7546,819.15753
2022-07-05 14:03:32.800,0.8111405,0.18511117,0.43620417,0.5396081,0.34396076,0,806.6667,809.89014,811.9048,804.2491
2022-07-05 14:03:32.801,0.8111405,0.18511117,0.43620417,0.5396081,0.34396076,0,804.2491,813.1135,804.2491,780.87915
2022-07-05 14:03:32.801,0.8111405,0.18511117,0.43620417,0.5396081,0.34396076,0,811.0989,803.8461,807.47253,794.57874
2022-07-05 14:03:32.831,0.8111405,0.18511117,0.43620417,0.5396081,0.34396076,0,814.7253,789.7436,808.68134,822.7839
2022-07-05 14:03:32.831,0.8111405,0.18511117,0.43620417,0.5396081,0.34396076,0,806.6667,805.8608,805.8608,821.1722
2022-07-05 14:03:32.832,0.8111405,0.18511117,0.43620417,0.5396081,0.34396076,0,806.26373,828.4249,805.05493,796.5934
2022-07-05 14:03:32.832,0.8111405,0.18511117,0.43620417,0.5396081,0.34396076,0,802.23444,819.5604,805.05493,785.7143
2022-07-05 14:03:32.832,0.8111405,0.18511117,0.43620417,0.5396081,0.34396076,0,804.65204,806.6667,815.5311,808.2784
2022-07-05 14:03:32.833,0.8111405,0.18511117,0.43620417,0.5396081,0.34396076,0,807.8755,809.89014,817.9487,821.5751
2022-07-05 14:03:32.833,0.8111405,0.18511117,0.43620417,0.5396081,0.34396076,0,802.23444,827.2161,807.47253,797.8022
2022-07-05 14:03:32.833,0.8111405,0.18511117,0.43620417,0.5396081,0.34396076,0,794.17584,828.022,810.696,787.72894
2022-07-05 14:03:32.833,0.8111405,0.18511117,0.43620417,0.5396081,0.34396076,0,793.36993,794.9817,815.9341,808.2784
2022-07-05 14:03:32.834,0.8111405,0.18511117,0.43620417,0.5396081,0.34396076,0,803.0403,781.28204,812.3077,826.0073
2022-07-05 14:03:32.834,0.8111405,0.18511117,0.43620417,0.5396081,0.34396076,0,798.60803,807.8755,804.65204,803.8461
2022-07-05 14:03:32.834,0.8111405,0.18511117,0.43620417,0.5396081,0.34396076,0,790.14655,822.7839,803.0403,783.69965
2022-07-05 14:03:32.864,0.8111405,0.18511117,0.43620417,0.5396081,0.34396076,0,795.78754,804.65204,813.5165,801.8315
2022-07-05 14:03:32.864,0.8111405,0.18511117,0.43620417,0.5396081,0.34396076,0,808.2784,792.5641,814.3223,823.1868
2022-07-05 14:03:32.865,0.8111405,0.18511117,0.43620417,0.5396081,0.34396076,0,816.337,811.50183,809.89014,813.91943
2022-07-05 14:03:32.865,0.8111405,0.18511117,0.43620417,0.5396081,0.34396076,0,814.7253,822.7839,807.8755,793.36993
2022-07-05 14:03:32.865,0.8111405,0.18511117,0.43620417,0.5396081,0.34396076,0,817.5458,819.9634,816.7399,803.8461
2022-07-05 14:03:32.866,0.8111405,0.18511117,0.43620417,0.5396081,0.34396076,0,825.6044,820.3663,828.8278,840.9158
2022-07-05 14:03:32.866,0.8111405,0.18511117,0.43620417,0.5396081,0.34396076,0,823.1868,818.7546,828.022,843.73627
2022-07-05 14:03:32.866,0.8111405,0.18511117,0.43620417,0.5396081,0.34396076,0,819.5604,821.1722,821.978,808.2784
2022-07-05 14:03:32.866,0.8111405,0.18511117,0.43620417,0.5396081,0.34396076,0,816.337,813.1135,823.1868,800.6227
2022-07-05 14:03:32.867,0.8111405,0.18511117,0.43620417,0.5396081,0.34396076,0,819.5604,788.1319,823.9927,823.9927
2022-07-05 14:03:32.867,0.8111405,0.18511117,0.43620417,0.5396081,0.34396076,0,820.3663,789.34064,817.1429,828.4249
2022-07-05 14:03:32.867,0.8111405,0.18511117,0.43620417,0.5396081,0.34396076,0,812.3077,819.5604,816.337,803.44324
2022-07-05 14:03:32.931,0.8111405,0.18511117,0.43620417,0.5396081,0.34396076,0,805.8608,830.0366,819.15753,783.69965
2022-07-05 14:03:32.932,0.8111405,0.18511117,0.43620417,0.5396081,0.34396076,0,808.2784,819.9634,828.4249,802.23444
2022-07-05 14:03:32.934,0.8111405,0.18511117,0.43620417,0.5396081,0.34396076,0,811.9048,805.05493,830.4396,823.1868
2022-07-05 14:03:32.934,0.8111405,0.18511117,0.43620417,0.5396081,0.34396076,0,805.8608,814.7253,815.12823,793.7729
2022-07-05 14:03:32.934,0.8111405,0.18511117,0.43620417,0.5396081,0.34396076,0,799.41394,816.337,804.2491,766.77655
2022-07-05 14:03:32.935,0.8111405,0.18511117,0.43620417,0.5396081,0.34396076,0,794.17584,803.0403,817.9487,784.10254
2022-07-05 14:03:32.935,0.8111405,0.18511117,0.43620417,0.5396081,0.34396076,0,792.96704,795.78754,822.381,809.89014
2022-07-05 14:03:32.935,0.8111405,0.18511117,0.43620417,0.5396081,0.34396076,0,791.3553,802.23444,812.3077,792.1612
2022-07-05 14:03:32.935,0.8111405,0.18511117,0.43620417,0.5396081,0.34396076,0,785.31134,813.5165,807.47253,767.98535
2022-07-05 14:03:32.936,0.8111405,0.18511117,0.43620417,0.5396081,0.34396076,0,786.9231,817.9487,815.5311,776.4469
2022-07-05 14:03:32.936,0.8111405,0.18511117,0.43620417,0.5396081,0.34396076,0,787.72894,794.9817,817.5458,800.2198
2022-07-05 14:03:32.936,0.8111405,0.18511117,0.43620417,0.5396081,0.34396076,0,787.326,788.1319,807.8755,801.4286
2022-07-05 14:03:32.964,0.8111405,0.18511117,0.43620417,0.5396081,0.34396076,0,790.54944,831.2454,801.8315,781.28204
2022-07-05 14:03:32.965,0.8111405,0.18511117,0.43620417,0.5396081,0.34396076,0,786.1172,824.3956,798.60803,780.87915
2022-07-05 14:03:32.966,0.8111405,0.18511117,0.43620417,0.5396081,0.34396076,0,791.75824,790.54944,809.89014,807.0696
2022-07-05 14:03:32.966,0.8111405,0.18511117,0.43620417,0.5396081,0.34396076,0,802.6374,793.7729,815.9341,814.3223
2022-07-05 14:03:32.967,0.8111405,0.18511117,0.43620417,0.5396081,0.34396076,0,796.1905,811.0989,805.8608,784.90845
2022-07-05 14:03:32.967,0.8111405,0.18511117,0.43620417,0.5396081,0.34396076,0,790.14655,814.3223,808.68134,771.6117
2022-07-05 14:03:32.967,0.8111405,0.18511117,0.43620417,0.5396081,0.34396076,0,790.14655,803.44324,822.7839,796.99634
2022-07-05 14:03:32.968,0.8111405,0.18511117,0.43620417,0.5396081,0.34396076,0,800.6227,779.2674,815.9341,819.15753
2022-07-05 14:03:32.968,0.8111405,0.18511117,0.43620417,0.5396081,0.34396076,0,807.47253,799.011,805.05493,799.41394
2022-07-05 14:03:32.968,0.8111405,0.18511117,0.43620417,0.5396081,0.34396076,0,809.89014,828.022,811.0989,786.9231
2022-07-05 14:03:32.969,0.8111405,0.18511117,0.43620417,0.5396081,0.34396076,0,818.3516,820.7692,821.1722,803.44324
2022-07-05 14:03:32.969,0.8111405,0.18511117,0.43620417,0.5396081,0.34396076,0,821.5751,793.7729,819.5604,822.381
2022-07-05 14:03:32.997,0.8111405,0.18511117,0.43620417,0.5396081,0.34396076,0,821.5751,795.78754,814.7253,813.5165
2022-07-05 14:03:32.998,0.8111405,0.18511117,0.43620417,0.5396081,0.34396076,0,826.0073,832.0513,819.9634,801.02563
2022-07-05 14:03:32.998,0.8111405,0.18511117,0.43620417,0.5396081,0.34396076,0,824.3956,832.0513,826.4103,803.0403
2022-07-05 14:03:32.999,0.8111405,0.18511117,0.43620417,0.5396081,0.34396076,0,818.7546,797.8022,817.1429,819.9634
2022-07-05 14:03:33.000,0.8111405,0.18511117,0.43620417,0.5396081,0.34396076,0,819.9634,797.3993,808.2784,826.8132
2022-07-05 14:03:33.000,0.8111405,0.18511117,0.43620417,0.5396081,0.34396076,0,816.7399,830.4396,815.5311,804.65204
2022-07-05 14:03:33.001,0.8111405,0.18511117,0.43620417,0.5396081,0.34396076,0,813.5165,847.3626,820.3663,799.011
2022-07-05 14:03:33.001,0.8111405,0.18511117,0.43620417,0.5396081,0.34396076,0,819.5604,820.3663,815.9341,817.5458
2022-07-05 14:03:33.001,0.8111405,0.18511117,0.43620417,0.5396081,0.34396076,0,822.381,796.1905,805.8608,829.2308
2022-07-05 14:03:33.001,0.8111405,0.18511117,0.43620417,0.5396081,0.34396076,0,820.3663,824.7985,808.68134,808.2784
2022-07-05 14:03:33.002,0.8111405,0.18511117,0.43620417,0.5396081,0.34396076,0,821.978,844.94507,820.3663,795.78754
2022-07-05 14:03:33.002,0.8111405,0.18511117,0.43620417,0.5396081,0.34396076,0,822.381,829.2308,824.3956,811.50183
2022-07-05 14:03:33.065,0.8111405,0.18511117,0.43620417,0.5396081,0.34396076,0,820.7692,803.8461,812.71063,823.9927
2022-07-05 14:03:33.066,0.8111405,0.18511117,0.43620417,0.5396081,0.34396076,0,819.5604,823.5897,808.68134,808.68134
2022-07-05 14:03:33.066,0.8111405,0.18511117,0.43620417,0.5396081,0.34396076,0,817.9487,846.1539,813.91943,790.54944
2022-07-05 14:03:33.067,0.8111405,0.18511117,0.43620417,0.5396081,0.34396076,0,810.293,826.4103,817.5458,795.78754
2022-07-05 14:03:33.067,0.8111405,0.18511117,0.43620417,0.5396081,0.34396076,0,807.0696,794.17584,810.293,813.91943
2022-07-05 14:03:33.067,0.8111405,0.18511117,0.43620417,0.5396081,0.34396076,0,802.6374,820.7692,811.0989,805.8608
2022-07-05 14:03:33.067,0.8111405,0.18511117,0.43620417,0.5396081,0.34396076,0,796.1905,861.06226,816.7399,785.31134
2022-07-05 14:03:33.068,0.8111405,0.18511117,0.43620417,0.5396081,0.34396076,0,793.7729,833.663,811.9048,788.5348
2022-07-05 14:03:33.068,0.8111405,0.18511117,0.43620417,0.5396081,0.34396076,0,789.7436,792.96704,803.44324,811.50183
2022-07-05 14:03:33.068,0.8111405,0.18511117,0.43620417,0.5396081,0.34396076,0,788.5348,792.1612,800.6227,814.7253
2022-07-05 14:03:33.069,0.8111405,0.18511117,0.43620417,0.5396081,0.34396076,0,792.1612,826.0073,807.8755,793.7729
2022-07-05 14:03:33.069,0.8111405,0.18511117,0.43620417,0.5396081,0.34396076,0,799.81683,836.08057,811.0989,790.54944
2022-07-05 14:03:33.133,0.8111405,0.18511117,0.43620417,0.5396081,0.34396076,0,799.41394,808.2784,804.65204,804.65204
2022-07-05 14:03:33.133,0.8111405,0.18511117,0.43620417,0.5396081,0.34396076,0,793.36993,778.86444,797.8022,810.696
2022-07-05 14:03:33.134,0.8111405,0.18511117,0.43620417,0.5396081,0.34396076,0,798.20514,807.8755,803.0403,791.75824
2022-07-05 14:03:33.134,0.8111405,0.18511117,0.43620417,0.5396081,0.34396076,0,808.68134,835.6777,805.05493,783.2967
2022-07-05 14:03:33.135,0.8111405,0.18511117,0.43620417,0.5396081,0.34396076,0,812.3077,809.4872,797.8022,798.20514
2022-07-05 14:03:33.135,0.8111405,0.18511117,0.43620417,0.5396081,0.34396076,0,803.44324,782.8938,799.011,816.337
2022-07-05 14:03:33.137,0.8111405,0.18511117,0.43620417,0.5396081,0.34396076,0,797.3993,819.9634,807.0696,803.0403
2022-07-05 14:03:33.137,0.8111405,0.18511117,0.43620417,0.5396081,0.34396076,0,805.05493,841.31866,801.8315,781.28204
2022-07-05 14:03:33.137,0.8111405,0.18511117,0.43620417,0.5396081,0.34396076,0,807.47253,812.71063,804.2491,795.38464
2022-07-05 14:03:33.138,0.8111405,0.18511117,0.43620417,0.5396081,0.34396076,0,803.8461,781.28204,802.6374,817.5458
2022-07-05 14:03:33.138,0.8111405,0.18511117,0.43620417,0.5396081,0.34396076,0,805.05493,788.1319,801.4286,812.71063
2022-07-05 14:03:33.138,0.8111405,0.18511117,0.43620417,0.5396081,0.34396076,0,806.6667,826.8132,809.4872,792.5641
2022-07-05 14:03:33.166,0.8111405,0.18511117,0.43620417,0.5396081,0.34396076,0,803.8461,837.28937,813.1135,791.3553
2022-07-05 14:03:33.167,0.8111405,0.18511117,0.43620417,0.5396081,0.34396076,0,803.44324,808.2784,810.293,815.12823
2022-07-05 14:03:33.167,0.8111405,0.18511117,0.43620417,0.5396081,0.34396076,0,803.44324,789.34064,804.2491,824.7985
2022-07-05 14:03:33.167,0.8111405,0.18511117,0.43620417,0.5396081,0.34396076,0,803.8461,818.3516,810.696,804.65204
2022-07-05 14:03:33.168,0.8111405,0.18511117,0.43620417,0.5396081,0.34396076,0,811.50183,837.28937,813.5165,794.9817
2022-07-05 14:03:33.168,0.8111405,0.18511117,0.43620417,0.5396081,0.34396076,0,812.71063,823.5897,811.0989,817.9487
2022-07-05 14:03:33.168,0.8111405,0.18511117,0.43620417,0.5396081,0.34396076,0,807.0696,801.02563,804.65204,834.0659
2022-07-05 14:03:33.168,0.8111405,0.18511117,0.43620417,0.5396081,0.34396076,0,806.26373,805.05493,809.0842,815.5311
2022-07-05 14:03:33.169,0.8111405,0.18511117,0.43620417,0.5396081,0.34396076,0,809.4872,822.381,814.7253,797.8022
2022-07-05 14:03:33.169,0.8111405,0.18511117,0.43620417,0.5396081,0.34396076,0,811.50183,815.5311,815.5311,810.293
2022-07-05 14:03:33.169,0.8111405,0.18511117,0.43620417,0.5396081,0.34396076,0,808.2784,784.10254,809.0842,830.4396
2022-07-05 14:03:33.170,0.8111405,0.18511117,0.43620417,0.5396081,0.34396076,0,808.2784,807.8755,808.68134,816.337
2022-07-05 14:03:33.199,0.8111405,0.18511117,0.43620417,0.5396081,0.34396076,0,806.26373,844.94507,808.68134,786.52014
2022-07-05 14:03:33.199,0.8111405,0.18511117,0.43620417,0.5396081,0.34396076,0,796.99634,829.2308,804.65204,787.72894
2022-07-05 14:03:33.200,0.8111405,0.18511117,0.43620417,0.5396081,0.34396076,0,791.75824,795.78754,794.9817,802.6374
2022-07-05 14:03:33.200,0.8111405,0.18511117,0.43620417,0.5396081,0.34396076,0,792.96704,803.44324,794.17584,799.41394
2022-07-05 14:03:33.200,0.8111405,0.18511117,0.43620417,0.5396081,0.34396076,0,799.81683,836.4835,805.8608,784.10254
2022-07-05 14:03:33.201,0.8111405,0.18511117,0.43620417,0.5396081,0.34396076,0,799.81683,848.97437,806.6667,772.4176
2022-07-05 14:03:33.201,0.8111405,0.18511117,0.43620417,0.5396081,0.34396076,0,792.96704,819.5604,792.5641,786.1172
2022-07-05 14:03:33.201,0.8111405,0.18511117,0.43620417,0.5396081,0.34396076,0,791.75824,787.326,782.0879,799.81683
2022-07-05 14:03:33.203,0.8111405,0.18511117,0.43620417,0.5396081,0.34396076,0,798.20514,817.5458,782.8938,782.8938
2022-07-05 14:03:33.203,0.8111405,0.18511117,0.43620417,0.5396081,0.34396076,0,801.02563,837.6923,784.90845,771.2088
2022-07-05 14:03:33.203,0.8111405,0.18511117,0.43620417,0.5396081,0.34396076,0,798.20514,819.15753,792.5641,792.96704
2022-07-05 14:03:33.204,0.8111405,0.18511117,0.43620417,0.5396081,0.34396076,0,792.5641,798.60803,790.9524,811.50183
2022-07-05 14:03:33.266,0.8111405,0.18511117,0.43620417,0.5396081,0.34396076,0,795.78754,816.337,794.17584,795.78754
2022-07-05 14:03:33.266,0.8111405,0.18511117,0.43620417,0.5396081,0.34396076,0,803.8461,837.6923,800.2198,783.69965
2022-07-05 14:03:33.267,0.8111405,0.18511117,0.43620417,0.5396081,0.34396076,0,799.011,820.7692,802.23444,792.5641
2022-07-05 14:03:33.267,0.8111405,0.18511117,0.43620417,0.5396081,0.34396076,0,787.326,784.10254,793.36993,814.7253
2022-07-05 14:03:33.268,0.8111405,0.18511117,0.43620417,0.5396081,0.34396076,0,792.1612,795.38464,797.8022,817.1429
2022-07-05 14:03:33.268,0.8111405,0.18511117,0.43620417,0.5396081,0.34396076,0,804.2491,830.4396,805.4579,794.17584
2022-07-05 14:03:33.268,0.8111405,0.18511117,0.43620417,0.5396081,0.34396076,0,805.05493,829.6337,808.2784,799.011
2022-07-05 14:03:33.269,0.8111405,0.18511117,0.43620417,0.5396081,0.34396076,0,807.8755,795.38464,806.6667,829.6337
2022-07-05 14:03:33.269,0.8111405,0.18511117,0.43620417,0.5396081,0.34396076,0,811.50183,789.34064,799.41394,832.4542
2022-07-05 14:03:33.269,0.8111405,0.18511117,0.43620417,0.5396081,0.34396076,0,817.5458,822.7839,803.44324,805.05493
2022-07-05 14:03:33.270,0.8111405,0.18511117,0.43620417,0.5396081,0.34396076,0,818.3516,834.87177,809.4872,800.6227
2022-07-05 14:03:33.270,0.8111405,0.18511117,0.43620417,0.5396081,0.34396076,0,813.5165,797.8022,808.2784,825.2015
2022-07-05 14:03:33.298,0.8111405,0.18511117,0.43620417,0.5396081,0.34396076,0,825.2015,780.87915,796.1905,838.0952
2022-07-05 14:03:33.299,0.8111405,0.18511117,0.43620417,0.5396081,0.34396076,0,832.0513,835.6777,793.36993,809.4872
2022-07-05 14:03:33.299,0.8111405,0.18511117,0.43620417,0.5396081,0.34396076,0,823.9927,841.31866,799.41394,783.69965
2022-07-05 14:03:33.300,0.8111405,0.18511117,0.43620417,0.5396081,0.34396076,0,812.3077,794.17584,797.3993,799.011
2022-07-05 14:03:33.300,0.8111405,0.18511117,0.43620417,0.5396081,0.34396076,0,799.41394,769.59705,784.90845,813.5165
2022-07-05 14:03:33.300,0.8111405,0.18511117,0.43620417,0.5396081,0.34396076,0,799.41394,807.0696,791.75824,793.7729
2022-07-05 14:03:33.301,0.8111405,0.18511117,0.43620417,0.5396081,0.34396076,0,800.6227,850.18317,796.1905,769.19415
2022-07-05 14:03:33.301,0.8111405,0.18511117,0.43620417,0.5396081,0.34396076,0,795.38464,829.6337,788.1319,778.46155
2022-07-05 14:03:33.301,0.8111405,0.18511117,0.43620417,0.5396081,0.34396076,0,788.93774,787.326,777.6557,797.8022
2022-07-05 14:03:33.301,0.8111405,0.18511117,0.43620417,0.5396081,0.34396076,0,777.25275,800.2198,772.8205,775.2381
2022-07-05 14:03:33.304,0.8111405,0.18511117,0.43620417,0.5396081,0.34396076,0,771.6117,831.6484,775.64105,741.39197
2022-07-05 14:03:33.304,0.8111405,0.18511117,0.43620417,0.5396081,0.34396076,0,773.6264,828.4249,781.685,746.2271
2022-07-05 14:03:33.332,0.8111405,0.18511117,0.43620417,0.5396081,0.34396076,0,770.40295,796.1905,774.43225,766.3736
2022-07-05 14:03:33.333,0.8111405,0.18511117,0.43620417,0.5396081,0.34396076,0,760.7326,785.7143,770,762.74725
2022-07-05 14:03:33.333,0.8111405,0.18511117,0.43620417,0.5396081,0.34396076,0,748.6447,820.7692,774.0293,731.31866
2022-07-05 14:03:33.334,0.8111405,0.18511117,0.43620417,0.5396081,0.34396076,0,738.97437,838.9011,774.43225,713.9927
2022-07-05 14:03:33.334,0.8111405,0.18511117,0.43620417,0.5396081,0.34396076,0,729.707,799.81683,765.56775,721.6484
2022-07-05 14:03:33.334,0.8111405,0.18511117,0.43620417,0.5396081,0.34396076,0,720.84247,786.1172,755.89746,728.0952
2022-07-05 14:03:33.335,0.8111405,0.18511117,0.43620417,0.5396081,0.34396076,0,724.0659,834.0659,761.9414,717.2161
2022-07-05 14:03:33.335,0.8111405,0.18511117,0.43620417,0.5396081,0.34396076,0,726.4835,847.76556,760.32965,701.50183
2022-07-05 14:03:33.335,0.8111405,0.18511117,0.43620417,0.5396081,0.34396076,0,715.2015,813.5165,757.9121,703.5165
2022-07-05 14:03:33.335,0.8111405,0.18511117,0.43620417,0.5396081,0.34396076,0,709.5604,782.8938,756.7033,718.8278
2022-07-05 14:03:33.336,0.8111405,0.18511117,0.43620417,0.5396081,0.34396076,0,712.381,808.2784,757.1062,703.5165
2022-07-05 14:03:33.336,0.8111405,0.18511117,0.43620417,0.5396081,0.34396076,0,703.91943,836.08057,754.68866,670.87915
2022-07-05 14:03:33.396,0.8111405,0.18511117,0.43620417,0.5396081,0.34396076,0,697.8755,821.978,753.0769,669.67035
2022-07-05 14:03:33.396,0.8111405,0.18511117,0.43620417,0.5396081,0.34396076,0,692.23444,779.67035,744.61536,693.44324
2022-07-05 14:03:33.396,0.8111405,0.18511117,0.43620417,0.5396081,0.34396076,0,690.6227,777.6557,738.5714,694.65204
2022-07-05 14:03:33.397,0.8111405,0.18511117,0.43620417,0.5396081,0.34396076,0,701.0989,812.71063,740.18317,666.4469
2022-07-05 14:03:33.397,0.8111405,0.18511117,0.43620417,0.5396081,0.34396076,0,708.3516,818.7546,747.8388,655.9707
2022-07-05 14:03:33.397,0.8111405,0.18511117,0.43620417,0.5396081,0.34396076,0,709.5604,807.47253,733.73627,671.28204
2022-07-05 14:03:33.398,0.8111405,0.18511117,0.43620417,0.5396081,0.34396076,0,700.293,792.96704,709.15753,672.8938
2022-07-05 14:03:33.398,0.8111405,0.18511117,0.43620417,0.5396081,0.34396076,0,686.5934,807.0696,727.28937,645.09155
2022-07-05 14:03:33.398,0.8111405,0.18511117,0.43620417,0.5396081,0.34396076,0,678.1319,816.337,748.24176,633.00366
2022-07-05 14:03:33.398,0.8111405,0.18511117,0.43620417,0.5396081,0.34396076,0,676.9231,786.52014,757.50916,654.35895
2022-07-05 14:03:33.399,0.8111405,0.18511117,0.43620417,0.5396081,0.34396076,0,674.10254,773.22345,755.4945,665.2381
2022-07-05 14:03:33.399,0.8111405,0.18511117,0.43620417,0.5396081,0.34396076,0,677.326,795.78754,761.9414,649.5238
2022-07-05 14:03:33.457,0.8111405,0.18511117,0.43620417,0.5396081,0.34396076,0,684.17584,805.8608,773.6264,646.30035
2022-07-05 14:03:33.458,0.8111405,0.18511117,0.43620417,0.5396081,0.34396076,0,682.5641,786.9231,773.6264,660.40295
2022-07-05 14:03:33.458,0.8111405,0.18511117,0.43620417,0.5396081,0.34396076,0,676.1172,751.4652,766.77655,676.52014
2022-07-05 14:03:33.459,0.8111405,0.18511117,0.43620417,0.5396081,0.34396076,0,683.36993,767.1795,778.86444,680.9524
2022-07-05 14:03:33.459,0.8111405,0.18511117,0.43620417,0.5396081,0.34396076,0,691.4286,797.8022,787.72894,668.86444
2022-07-05 14:03:33.459,0.8111405,0.18511117,0.43620417,0.5396081,0.34396076,0,682.96704,801.8315,783.69965,663.22345
2022-07-05 14:03:33.460,0.8111405,0.18511117,0.43620417,0.5396081,0.34396076,0,678.1319,778.0586,766.3736,679.7436
2022-07-05 14:03:33.460,0.8111405,0.18511117,0.43620417,0.5396081,0.34396076,0,697.47253,770.80585,749.85345,691.4286
2022-07-05 14:03:33.460,0.8111405,0.18511117,0.43620417,0.5396081,0.34396076,0,722.0513,804.65204,781.685,698.68134
2022-07-05 14:03:33.461,0.8111405,0.18511117,0.43620417,0.5396081,0.34396076,0,694.65204,788.5348,780.87915,681.75824
2022-07-05 14:03:33.461,0.8111405,0.18511117,0.43620417,0.5396081,0.34396076,0,661.6117,739.7802,742.1978,669.2674
2022-07-05 14:03:33.461,0.8111405,0.18511117,0.43620417,0.5396081,0.34396076,0,658.3883,740.989,748.24176,674.10254
2022-07-05 14:03:33.490,0.8111405,0.18511117,0.43620417,0.5396081,0.34396076,0,665.2381,788.5348,772.4176,662.01465
2022-07-05 14:03:33.491,0.8111405,0.18511117,0.43620417,0.5396081,0.34396076,0,684.57874,805.4579,774.43225,660.80585
2022-07-05 14:03:33.492,0.8111405,0.18511117,0.43620417,0.5396081,0.34396076,0,679.34064,780.4762,767.5824,674.90845
2022-07-05 14:03:33.492,0.8111405,0.18511117,0.43620417,0.5396081,0.34396076,0,672.0879,758.71796,763.5531,684.57874
2022-07-05 14:03:33.492,0.8111405,0.18511117,0.43620417,0.5396081,0.34396076,0,700.696,794.17584,770.80585,683.36993
2022-07-05 14:03:33.492,0.8111405,0.18511117,0.43620417,0.5396081,0.34396076,0,717.2161,827.2161,781.685,679.7436
2022-07-05 14:03:33.493,0.8111405,0.18511117,0.43620417,0.5396081,0.34396076,0,709.5604,796.5934,776.8498,689.81683
2022-07-05 14:03:33.493,0.8111405,0.18511117,0.43620417,0.5396081,0.34396076,0,709.9634,754.68866,758.315,707.5458
2022-07-05 14:03:33.493,0.8111405,0.18511117,0.43620417,0.5396081,0.34396076,0,714.7985,761.13556,757.9121,701.9048
2022-07-05 14:03:33.494,0.8111405,0.18511117,0.43620417,0.5396081,0.34396076,0,720.0366,780.07324,768.7912,690.6227
2022-07-05 14:03:33.494,0.8111405,0.18511117,0.43620417,0.5396081,0.34396076,0,723.2601,780.07324,776.04395,698.2784
2022-07-05 14:03:33.494,0.8111405,0.18511117,0.43620417,0.5396081,0.34396076,0,724.4689,770.40295,771.6117,717.619
2022-07-05 14:03:33.549,0.8111405,0.18511117,0.43620417,0.5396081,0.34396076,0,736.1539,776.4469,769.19415,726.4835
2022-07-05 14:03:33.549,0.8111405,0.18511117,0.43620417,0.5396081,0.34396076,0,746.63007,782.49084,775.2381,716.8132
2022-07-05 14:03:33.551,0.8111405,0.18511117,0.43620417,0.5396081,0.34396076,0,741.39197,786.9231,782.8938,722.8571
2022-07-05 14:03:33.552,0.8111405,0.18511117,0.43620417,0.5396081,0.34396076,0,735.34796,779.67035,767.5824,752.27106
2022-07-05 14:03:33.552,0.8111405,0.18511117,0.43620417,0.5396081,0.34396076,0,738.97437,764.7619,747.03296,761.13556
2022-07-05 14:03:33.552,0.8111405,0.18511117,0.43620417,0.5396081,0.34396076,0,743.00366,815.9341,757.9121,743.4066
2022-07-05 14:03:33.553,0.8111405,0.18511117,0.43620417,0.5396081,0.34396076,0,738.97437,837.28937,760.32965,728.0952
2022-07-05 14:03:33.553,0.8111405,0.18511117,0.43620417,0.5396081,0.34396076,0,743.4066,785.31134,774.0293,747.4359
2022-07-05 14:03:33.553,0.8111405,0.18511117,0.43620417,0.5396081,0.34396076,0,761.13556,751.8681,784.90845,783.2967
2022-07-05 14:03:33.553,0.8111405,0.18511117,0.43620417,0.5396081,0.34396076,0,769.19415,768.7912,782.0879,778.0586
2022-07-05 14:03:33.554,0.8111405,0.18511117,0.43620417,0.5396081,0.34396076,0,768.3883,772.4176,770.80585,754.68866
2022-07-05 14:03:33.554,0.8111405,0.18511117,0.43620417,0.5396081,0.34396076,0,774.83514,761.53845,778.0586,763.95605
2022-07-05 14:03:33.582,0.8111405,0.18511117,0.43620417,0.5396081,0.34396076,0,783.2967,728.9011,777.6557,786.52014
2022-07-05 14:03:33.583,0.8111405,0.18511117,0.43620417,0.5396081,0.34396076,0,799.41394,735.34796,776.04395,797.3993
2022-07-05 14:03:33.583,0.8111405,0.18511117,0.43620417,0.5396081,0.34396076,0,804.65204,799.81683,783.69965,789.7436
2022-07-05 14:03:33.584,0.8111405,0.18511117,0.43620417,0.5396081,0.34396076,0,809.4872,814.3223,787.72894,798.60803
2022-07-05 14:03:33.584,0.8111405,0.18511117,0.43620417,0.5396081,0.34396076,0,831.2454,794.17584,784.90845,838.9011
2022-07-05 14:03:33.584,0.8111405,0.18511117,0.43620417,0.5396081,0.34396076,0,837.28937,779.2674,784.90845,844.1392
2022-07-05 14:03:33.585,0.8111405,0.18511117,0.43620417,0.5396081,0.34396076,0,837.6923,763.1502,787.72894,814.7253
2022-07-05 14:03:33.585,0.8111405,0.18511117,0.43620417,0.5396081,0.34396076,0,843.73627,769.59705,794.9817,811.50183
2022-07-05 14:03:33.585,0.8111405,0.18511117,0.43620417,0.5396081,0.34396076,0,842.52747,770.80585,796.5934,828.022
2022-07-05 14:03:33.585,0.8111405,0.18511117,0.43620417,0.5396081,0.34396076,0,853.4066,777.25275,796.1905,854.21246
2022-07-05 14:03:33.586,0.8111405,0.18511117,0.43620417,0.5396081,0.34396076,0,861.06226,797.8022,804.2491,855.0183
2022-07-05 14:03:33.586,0.8111405,0.18511117,0.43620417,0.5396081,0.34396076,0,853.00366,808.2784,799.41394,837.6923
2022-07-05 14:03:33.648,0.8111405,0.18511117,0.43620417,0.5396081,0.34396076,0,844.5421,799.81683,796.99634,844.5421
2022-07-05 14:03:33.649,0.8111405,0.18511117,0.43620417,0.5396081,0.34396076,0,840.5128,762.3443,789.34064,857.03296
2022-07-05 14:03:33.650,0.8111405,0.18511117,0.43620417,0.5396081,0.34396076,0,848.97437,762.74725,788.1319,847.76556
2022-07-05 14:03:33.650,0.8111405,0.18511117,0.43620417,0.5396081,0.34396076,0,852.6007,783.2967,783.2967,830.84247
2022-07-05 14:03:33.652,0.8111405,0.18511117,0.43620417,0.5396081,0.34396076,0,848.1685,758.71796,772.01465,833.663
2022-07-05 14:03:33.652,0.8111405,0.18511117,0.43620417,0.5396081,0.34396076,0,845.34796,738.5714,776.04395,853.8095
2022-07-05 14:03:33.653,0.8111405,0.18511117,0.43620417,0.5396081,0.34396076,0,850.18317,766.3736,789.7436,861.8681
2022-07-05 14:03:33.653,0.8111405,0.18511117,0.43620417,0.5396081,0.34396076,0,848.97437,765.56775,788.93774,844.94507
2022-07-05 14:03:33.653,0.8111405,0.18511117,0.43620417,0.5396081,0.34396076,0,841.31866,730.10986,773.22345,840.5128
2022-07-05 14:03:33.654,0.8111405,0.18511117,0.43620417,0.5396081,0.34396076,0,841.7216,717.619,763.5531,861.4652
2022-07-05 14:03:33.654,0.8111405,0.18511117,0.43620417,0.5396081,0.34396076,0,835.6777,734.5421,760.32965,861.4652
2022-07-05 14:03:33.654,0.8111405,0.18511117,0.43620417,0.5396081,0.34396076,0,829.6337,756.7033,765.16486,830.84247
2022-07-05 14:03:33.683,0.8111405,0.18511117,0.43620417,0.5396081,0.34396076,0,821.1722,760.7326,772.01465,816.7399
2022-07-05 14:03:33.684,0.8111405,0.18511117,0.43620417,0.5396081,0.34396076,0,821.5751,753.8828,781.28204,836.4835
2022-07-05 14:03:33.684,0.8111405,0.18511117,0.43620417,0.5396081,0.34396076,0,828.022,750.65936,781.28204,850.58606
2022-07-05 14:03:33.684,0.8111405,0.18511117,0.43620417,0.5396081,0.34396076,0,829.2308,759.12085,769.19415,835.2747
2022-07-05 14:03:33.685,0.8111405,0.18511117,0.43620417,0.5396081,0.34396076,0,825.2015,755.4945,764.7619,825.2015
2022-07-05 14:03:33.685,0.8111405,0.18511117,0.43620417,0.5396081,0.34396076,0,824.3956,747.8388,774.83514,838.0952
2022-07-05 14:03:33.685,0.8111405,0.18511117,0.43620417,0.5396081,0.34396076,0,837.6923,724.87177,777.25275,863.8828
2022-07-05 14:03:33.685,0.8111405,0.18511117,0.43620417,0.5396081,0.34396076,0,840.9158,707.1429,780.87915,864.68866
2022-07-05 14:03:33.686,0.8111405,0.18511117,0.43620417,0.5396081,0.34396076,0,835.6777,727.28937,778.86444,841.7216
2022-07-05 14:03:33.686,0.8111405,0.18511117,0.43620417,0.5396081,0.34396076,0,828.8278,737.76556,774.83514,835.2747
2022-07-05 14:03:33.686,0.8111405,0.18511117,0.43620417,0.5396081,0.34396076,0,836.8865,723.663,773.22345,859.45056
2022-07-05 14:03:33.687,0.8111405,0.18511117,0.43620417,0.5396081,0.34396076,0,856.2271,736.55676,767.5824,873.1502
2022-07-05 14:03:33.749,0.8111405,0.18511117,0.43620417,0.5396081,0.34396076,0,867.50916,763.1502,780.07324,866.7033
2022-07-05 14:03:33.750,0.8111405,0.18511117,0.43620417,0.5396081,0.34396076,0,863.8828,744.21246,788.93774,862.674
2022-07-05 14:03:33.751,0.8111405,0.18511117,0.43620417,0.5396081,0.34396076,0,857.03296,725.6777,782.8938,874.7619
2022-07-05 14:03:33.751,0.8111405,0.18511117,0.43620417,0.5396081,0.34396076,0,859.0476,720.4396,778.0586,884.43225
2022-07-05 14:03:33.751,0.8111405,0.18511117,0.43620417,0.5396081,0.34396076,0,859.0476,736.1539,776.8498,865.89746
2022-07-05 14:03:33.751,0.8111405,0.18511117,0.43620417,0.5396081,0.34396076,0,860.2564,757.9121,777.25275,859.0476
2022-07-05 14:03:33.753,0.8111405,0.18511117,0.43620417,0.5396081,0.34396076,0,855.42126,765.16486,783.69965,871.53845
2022-07-05 14:03:33.754,0.8111405,0.18511117,0.43620417,0.5396081,0.34396076,0,856.63007,767.98535,780.4762,879.59705
2022-07-05 14:03:33.754,0.8111405,0.18511117,0.43620417,0.5396081,0.34396076,0,858.6447,767.1795,770.80585,870.32965
2022-07-05 14:03:33.754,0.8111405,0.18511117,0.43620417,0.5396081,0.34396076,0,854.61536,767.1795,776.04395,857.03296
2022-07-05 14:03:33.754,0.8111405,0.18511117,0.43620417,0.5396081,0.34396076,0,847.76556,753.0769,781.28204,862.27106
2022-07-05 14:03:33.755,0.8111405,0.18511117,0.43620417,0.5396081,0.34396076,0,851.79486,737.3626,775.2381,876.3736
2022-07-05 14:03:33.782,0.8111405,0.18511117,0.43620417,0.5396081,0.34396076,0,857.8388,747.8388,773.22345,860.65936
2022-07-05 14:03:33.782,0.8111405,0.18511117,0.43620417,0.5396081,0.34396076,0,859.85345,775.2381,774.83514,844.1392
2022-07-05 14:03:33.783,0.8111405,0.18511117,0.43620417,0.5396081,0.34396076,0,863.47986,775.64105,780.87915,854.61536
2022-07-05 14:03:33.783,0.8111405,0.18511117,0.43620417,0.5396081,0.34396076,0,872.74725,744.61536,778.46155,883.22345
2022-07-05 14:03:33.783,0.8111405,0.18511117,0.43620417,0.5396081,0.34396076,0,876.77655,745.42126,763.1502,889.2674
2022-07-05 14:03:33.783,0.8111405,0.18511117,0.43620417,0.5396081,0.34396076,0,861.8681,782.49084,751.06226,855.42126
2022-07-05 14:03:33.784,0.8111405,0.18511117,0.43620417,0.5396081,0.34396076,0,849.7802,792.96704,755.4945,838.0952
2022-07-05 14:03:33.784,0.8111405,0.18511117,0.43620417,0.5396081,0.34396076,0,851.79486,760.7326,771.6117,855.0183
2022-07-05 14:03:33.784,0.8111405,0.18511117,0.43620417,0.5396081,0.34396076,0,871.53845,754.68866,792.96704,875.56775
2022-07-05 14:03:33.785,0.8111405,0.18511117,0.43620417,0.5396081,0.34396076,0,865.4945,749.85345,790.9524,858.6447
2022-07-05 14:03:33.785,0.8111405,0.18511117,0.43620417,0.5396081,0.34396076,0,840.5128,718.4249,770.40295,832.8571
2022-07-05 14:03:33.785,0.8111405,0.18511117,0.43620417,0.5396081,0.34396076,0,834.87177,697.8755,770.40295,836.08057
2022-07-05 14:03:33.807,0.8111405,0.18511117,0.43620417,0.5396081,0.34396076,0,839.304,685.38464,767.1795,844.5421
2022-07-05 14:03:33.808,0.8111405,0.18511117,0.43620417,0.5396081,0.34396076,0,836.8865,692.23444,758.71796,832.8571
2022-07-05 14:03:33.809,0.8111405,0.18511117,0.43620417,0.5396081,0.34396076,0,829.6337,708.3516,761.13556,819.15753
2022-07-05 14:03:33.809,0.8111405,0.18511117,0.43620417,0.5396081,0.34396076,0,826.4103,707.1429,772.4176,833.663
2022-07-05 14:03:33.809,0.8111405,0.18511117,0.43620417,0.5396081,0.34396076,0,825.2015,705.5311,769.19415,854.21246
2022-07-05 14:03:33.810,0.8111405,0.18511117,0.43620417,0.5396081,0.34396076,0,824.3956,710.3663,763.1502,846.55676
2022-07-05 14:03:33.810,0.8111405,0.18511117,0.43620417,0.5396081,0.34396076,0,826.4103,718.4249,767.5824,828.4249
2022-07-05 14:03:33.810,0.8111405,0.18511117,0.43620417,0.5396081,0.34396076,0,824.3956,713.1868,766.77655,821.5751
2022-07-05 14:03:33.812,0.8111405,0.18511117,0.43620417,0.5396081,0.34396076,0,821.1722,683.7729,761.13556,834.0659
2022-07-05 14:03:33.812,0.8111405,0.18511117,0.43620417,0.5396081,0.34396076,0,815.9341,693.44324,761.53845,839.707
2022-07-05 14:03:33.812,0.8111405,0.18511117,0.43620417,0.5396081,0.34396076,0,818.7546,713.9927,758.315,824.3956
2022-07-05 14:03:33.813,0.8111405,0.18511117,0.43620417,0.5396081,0.34396076,0,821.1722,720.4396,752.27106,813.5165
2022-07-05 14:03:33.865,0.8111405,0.18511117,0.43620417,0.5396081,0.34396076,0,824.7985,713.1868,753.8828,830.4396
2022-07-05 14:03:33.866,0.8111405,0.18511117,0.43620417,0.5396081,0.34396076,0,833.663,709.15753,740.58606,849.3773
2022-07-05 14:03:33.866,0.8111405,0.18511117,0.43620417,0.5396081,0.34396076,0,836.8865,707.1429,728.9011,836.08057
2022-07-05 14:03:33.867,0.8111405,0.18511117,0.43620417,0.5396081,0.34396076,0,825.6044,700.696,734.5421,817.9487
2022-07-05 14:03:33.867,0.8111405,0.18511117,0.43620417,0.5396081,0.34396076,0,829.2308,723.663,740.18317,823.9927
2022-07-05 14:03:33.867,0.8111405,0.18511117,0.43620417,0.5396081,0.34396076,0,843.73627,718.4249,741.79486,840.9158
2022-07-05 14:03:33.868,0.8111405,0.18511117,0.43620417,0.5396081,0.34396076,0,855.0183,717.2161,762.74725,846.1539
2022-07-05 14:03:33.868,0.8111405,0.18511117,0.43620417,0.5396081,0.34396076,0,860.65936,718.022,757.50916,834.87177
2022-07-05 14:03:33.868,0.8111405,0.18511117,0.43620417,0.5396081,0.34396076,0,844.1392,709.15753,737.76556,824.7985
2022-07-05 14:03:33.868,0.8111405,0.18511117,0.43620417,0.5396081,0.34396076,0,848.5714,734.1392,749.45056,847.76556
2022-07-05 14:03:33.869,0.8111405,0.18511117,0.43620417,0.5396081,0.34396076,0,859.85345,755.09155,753.47986,854.61536
2022-07-05 14:03:33.869,0.8111405,0.18511117,0.43620417,0.5396081,0.34396076,0,844.5421,760.7326,741.79486,807.8755
2022-07-05 14:03:33.933,0.8111405,0.18511117,0.43620417,0.5396081,0.34396076,0,824.7985,747.4359,745.82416,789.7436
2022-07-05 14:03:33.933,0.8111405,0.18511117,0.43620417,0.5396081,0.34396076,0,833.2601,718.022,761.13556,829.2308
2022-07-05 14:03:33.934,0.8111405,0.18511117,0.43620417,0.5396081,0.34396076,0,855.0183,733.3333,765.56775,850.18317
2022-07-05 14:03:33.934,0.8111405,0.18511117,0.43620417,0.5396081,0.34396076,0,838.49817,738.1685,753.8828,813.1135
2022-07-05 14:03:33.934,0.8111405,0.18511117,0.43620417,0.5396081,0.34396076,0,813.91943,700.293,743.4066,788.1319
2022-07-05 14:03:33.935,0.8111405,0.18511117,0.43620417,0.5396081,0.34396076,0,826.0073,713.9927,741.39197,819.5604
2022-07-05 14:03:33.935,0.8111405,0.18511117,0.43620417,0.5396081,0.34396076,0,819.9634,718.4249,719.2308,819.5604
2022-07-05 14:03:33.935,0.8111405,0.18511117,0.43620417,0.5396081,0.34396076,0,809.89014,703.91943,715.2015,794.9817
2022-07-05 14:03:33.935,0.8111405,0.18511117,0.43620417,0.5396081,0.34396076,0,825.2015,716.4103,733.73627,794.9817
2022-07-05 14:03:33.936,0.8111405,0.18511117,0.43620417,0.5396081,0.34396076,0,826.4103,703.91943,741.79486,807.47253
2022-07-05 14:03:33.937,0.8111405,0.18511117,0.43620417,0.5396081,0.34396076,0,815.12823,668.86444,742.6007,825.2015
2022-07-05 14:03:33.937,0.8111405,0.18511117,0.43620417,0.5396081,0.34396076,0,807.0696,669.67035,745.82416,809.89014
2022-07-05 14:03:33.966,0.8111405,0.18511117,0.43620417,0.5396081,0.34396076,0,813.5165,686.99634,726.8865,788.1319
2022-07-05 14:03:33.966,0.8111405,0.18511117,0.43620417,0.5396081,0.34396076,0,827.2161,700.293,719.2308,798.20514
2022-07-05 14:03:33.967,0.8111405,0.18511117,0.43620417,0.5396081,0.34396076,0,830.84247,655.9707,729.304,822.7839
2022-07-05 14:03:33.967,0.8111405,0.18511117,0.43620417,0.5396081,0.34396076,0,807.0696,638.6447,735.34796,814.7253
2022-07-05 14:03:33.967,0.8111405,0.18511117,0.43620417,0.5396081,0.34396076,0,790.14655,668.86444,742.1978,779.67035
2022-07-05 14:03:33.968,0.8111405,0.18511117,0.43620417,0.5396081,0.34396076,0,800.6227,659.19415,747.03296,781.28204
2022-07-05 14:03:33.968,0.8111405,0.18511117,0.43620417,0.5396081,0.34396076,0,815.5311,637.4359,743.4066,804.2491
2022-07-05 14:03:33.968,0.8111405,0.18511117,0.43620417,0.5396081,0.34396076,0,816.337,612.8571,736.55676,811.0989
2022-07-05 14:03:33.968,0.8111405,0.18511117,0.43620417,0.5396081,0.34396076,0,811.0989,583.44324,742.6007,795.38464
2022-07-05 14:03:33.969,0.8111405,0.18511117,0.43620417,0.5396081,0.34396076,0,818.3516,561.28204,755.89746,796.5934
2022-07-05 14:03:33.969,0.8111405,0.18511117,0.43620417,0.5396081,0.34396076,0,817.1429,546.77655,759.12085,811.0989
2022-07-05 14:03:33.969,0.8111405,0.18511117,0.43620417,0.5396081,0.34396076,0,816.7399,539.5238,746.63007,816.7399
2022-07-05 14:03:33.999,0.8111405,0.18511117,0.43620417,0.5396081,0.34396076,0,819.9634,539.92676,738.1685,806.6667
2022-07-05 14:03:34.000,0.8111405,0.18511117,0.43620417,0.5396081,0.34396076,0,822.7839,533.8828,745.82416,793.36993
2022-07-05 14:03:34.000,0.8111405,0.18511117,0.43620417,0.5396081,0.34396076,0,826.4103,540.32965,751.4652,802.23444
2022-07-05 14:03:34.000,0.8111405,0.18511117,0.43620417,0.5396081,0.34396076,0,835.6777,543.95605,749.0476,824.7985
2022-07-05 14:03:34.001,0.8111405,0.18511117,0.43620417,0.5396081,0.34396076,0,845.34796,536.7033,743.4066,823.9927
2022-07-05 14:03:34.001,0.8111405,0.18511117,0.43620417,0.5396081,0.34396076,0,841.7216,545.56775,740.989,811.0989
2022-07-05 14:03:34.001,0.8111405,0.18511117,0.43620417,0.5396081,0.34396076,0,837.6923,555.64105,749.0476,816.7399
2022-07-05 14:03:34.001,0.8111405,0.18511117,0.43620417,0.5396081,0.34396076,0,846.55676,554.83514,747.8388,838.49817
2022-07-05 14:03:34.002,0.8111405,0.18511117,0.43620417,0.5396081,0.34396076,0,850.58606,562.49084,743.4066,848.97437
2022-07-05 14:03:34.002,0.8111405,0.18511117,0.43620417,0.5396081,0.34396076,0,858.24176,564.90845,737.76556,839.304
2022-07-05 14:03:34.002,0.8111405,0.18511117,0.43620417,0.5396081,0.34396076,0,859.45056,555.64105,733.73627,830.4396
2022-07-05 14:03:34.003,0.8111405,0.18511117,0.43620417,0.5396081,0.34396076,0,845.34796,554.0293,724.0659,835.6777
2022-07-05 14:03:34.066,0.8111405,0.18511117,0.43620417,0.5396081,0.34396076,0,845.7509,567.326,718.8278,847.3626
2022-07-05 14:03:34.067,0.8111405,0.18511117,0.43620417,0.5396081,0.34396076,0,844.5421,587.0696,726.8865,838.49817
2022-07-05 14:03:34.068,0.8111405,0.18511117,0.43620417,0.5396081,0.34396076,0,846.55676,610.0366,723.663,826.0073
2022-07-05 14:03:34.068,0.8111405,0.18511117,0.43620417,0.5396081,0.34396076,0,869.12085,639.45056,717.2161,852.1978
2022-07-05 14:03:34.068,0.8111405,0.18511117,0.43620417,0.5396081,0.34396076,0,873.95605,629.7802,705.5311,869.92676
2022-07-05 14:03:34.069,0.8111405,0.18511117,0.43620417,0.5396081,0.34396076,0,854.21246,611.2454,692.23444,841.7216
2022-07-05 14:03:34.069,0.8111405,0.18511117,0.43620417,0.5396081,0.34396076,0,844.1392,622.52747,700.696,821.1722
2022-07-05 14:03:34.069,0.8111405,0.18511117,0.43620417,0.5396081,0.34396076,0,834.4689,624.5421,711.1722,823.1868
2022-07-05 14:03:34.069,0.8111405,0.18511117,0.43620417,0.5396081,0.34396076,0,842.1245,606.0073,712.381,842.9304
2022-07-05 14:03:34.070,0.8111405,0.18511117,0.43620417,0.5396081,0.34396076,0,848.97437,627.3626,716.8132,846.55676
2022-07-05 14:03:34.070,0.8111405,0.18511117,0.43620417,0.5396081,0.34396076,0,844.1392,651.13556,720.0366,825.6044
2022-07-05 14:03:34.070,0.8111405,0.18511117,0.43620417,0.5396081,0.34396076,0,845.7509,650.32965,720.84247,822.381
2022-07-05 14:03:34.099,0.8111405,0.18511117,0.43620417,0.5396081,0.34396076,0,853.4066,641.4652,713.5897,850.58606
2022-07-05 14:03:34.100,0.8111405,0.18511117,0.43620417,0.5396081,0.34396076,0,872.3443,646.30035,711.978,868.71796
2022-07-05 14:03:34.100,0.8111405,0.18511117,0.43620417,0.5396081,0.34396076,0,881.2088,656.77655,716.0073,849.7802
2022-07-05 14:03:34.101,0.8111405,0.18511117,0.43620417,0.5396081,0.34396076,0,862.27106,655.9707,706.7399,832.8571
2022-07-05 14:03:34.101,0.8111405,0.18511117,0.43620417,0.5396081,0.34396076,0,846.9597,657.98535,704.7253,846.55676
2022-07-05 14:03:34.101,0.8111405,0.18511117,0.43620417,0.5396081,0.34396076,0,833.2601,651.9414,703.91943,847.76556
2022-07-05 14:03:34.102,0.8111405,0.18511117,0.43620417,0.5396081,0.34396076,0,826.0073,676.52014,709.5604,822.381
2022-07-05 14:03:34.102,0.8111405,0.18511117,0.43620417,0.5396081,0.34396076,0,837.6923,677.326,716.4103,819.5604
2022-07-05 14:03:34.102,0.8111405,0.18511117,0.43620417,0.5396081,0.34396076,0,843.3333,647.9121,711.1722,833.2601
2022-07-05 14:03:34.102,0.8111405,0.18511117,0.43620417,0.5396081,0.34396076,0,844.1392,654.35895,718.4249,849.3773
2022-07-05 14:03:34.103,0.8111405,0.18511117,0.43620417,0.5396081,0.34396076,0,845.7509,664.83514,724.87177,838.0952
2022-07-05 14:03:34.103,0.8111405,0.18511117,0.43620417,0.5396081,0.34396076,0,840.9158,665.2381,725.2747,813.1135
2022-07-05 14:03:34.133,0.8111405,0.18511117,0.43620417,0.5396081,0.34396076,0,840.5128,645.4945,733.73627,821.1722
2022-07-05 14:03:34.133,0.8111405,0.18511117,0.43620417,0.5396081,0.34396076,0,855.42126,623.73627,739.3773,845.34796
2022-07-05 14:03:34.135,0.8111405,0.18511117,0.43620417,0.5396081,0.34396076,0,858.6447,635.82416,737.3626,846.55676
2022-07-05 14:03:34.136,0.8111405,0.18511117,0.43620417,0.5396081,0.34396076,0,844.94507,628.5714,729.707,827.2161
2022-07-05 14:03:34.136,0.8111405,0.18511117,0.43620417,0.5396081,0.34396076,0,844.94507,626.9597,731.31866,823.1868
2022-07-05 14:03:34.136,0.8111405,0.18511117,0.43620417,0.5396081,0.34396076,0,838.49817,623.3333,738.1685,831.2454
2022-07-05 14:03:34.137,0.8111405,0.18511117,0.43620417,0.5396081,0.34396076,0,829.6337,604.7985,738.97437,831.6484
2022-07-05 14:03:34.137,0.8111405,0.18511117,0.43620417,0.5396081,0.34396076,0,838.49817,581.02563,739.7802,820.7692
2022-07-05 14:03:34.137,0.8111405,0.18511117,0.43620417,0.5396081,0.34396076,0,836.4835,560.07324,748.24176,815.5311
2022-07-05 14:03:34.137,0.8111405,0.18511117,0.43620417,0.5396081,0.34396076,0,831.2454,567.72894,753.0769,825.2015
2022-07-05 14:03:34.138,0.8111405,0.18511117,0.43620417,0.5396081,0.34396076,0,828.8278,554.83514,751.4652,836.4835
2022-07-05 14:03:34.138,0.8111405,0.18511117,0.43620417,0.5396081,0.34396076,0,821.978,554.43225,753.8828,831.2454
2022-07-05 14:03:34.188,0.8111405,0.18511117,0.43620417,0.5396081,0.34396076,0,828.022,572.96704,760.32965,817.1429
2022-07-05 14:03:34.188,0.8111405,0.18511117,0.43620417,0.5396081,0.34396076,0,829.6337,564.5055,760.32965,813.91943
2022-07-05 14:03:34.188,0.8111405,0.18511117,0.43620417,0.5396081,0.34396076,0,830.0366,555.2381,759.12085,830.0366
2022-07-05 14:03:34.189,0.8111405,0.18511117,0.43620417,0.5396081,0.34396076,0,832.4542,573.36993,758.315,828.4249
2022-07-05 14:03:34.189,0.8111405,0.18511117,0.43620417,0.5396081,0.34396076,0,836.4835,593.1135,753.0769,806.26373
2022-07-05 14:03:34.189,0.8111405,0.18511117,0.43620417,0.5396081,0.34396076,0,846.55676,601.1722,767.98535,813.91943
2022-07-05 14:03:34.189,0.8111405,0.18511117,0.43620417,0.5396081,0.34396076,0,850.18317,614.4689,782.8938,841.7216
2022-07-05 14:03:34.190,0.8111405,0.18511117,0.43620417,0.5396081,0.34396076,0,853.00366,628.5714,779.67035,838.0952
2022-07-05 14:03:34.190,0.8111405,0.18511117,0.43620417,0.5396081,0.34396076,0,853.4066,641.8681,780.87915,817.5458
2022-07-05 14:03:34.190,0.8111405,0.18511117,0.43620417,0.5396081,0.34396076,0,845.34796,636.2271,778.46155,809.89014
2022-07-05 14:03:34.190,0.8111405,0.18511117,0.43620417,0.5396081,0.34396076,0,843.3333,618.49817,770,815.5311
2022-07-05 14:03:34.190,0.8111405,0.18511117,0.43620417,0.5396081,0.34396076,0,855.82416,633.00366,765.16486,834.4689
2022-07-05 14:03:34.238,0.8111405,0.18511117,0.43620417,0.5396081,0.34396076,0,863.0769,658.7912,769.59705,829.6337
2022-07-05 14:03:34.238,0.8111405,0.18511117,0.43620417,0.5396081,0.34396076,0,840.5128,660.80585,774.0293,803.44324
2022-07-05 14:03:34.239,0.8111405,0.18511117,0.43620417,0.5396081,0.34396076,0,832.0513,654.7619,779.67035,812.71063
2022-07-05 14:03:34.239,0.8111405,0.18511117,0.43620417,0.5396081,0.34396076,0,838.9011,642.674,788.93774,830.84247
2022-07-05 14:03:34.240,0.8111405,0.18511117,0.43620417,0.5396081,0.34396076,0,836.4835,649.5238,790.14655,823.9927
2022-07-05 14:03:34.240,0.8111405,0.18511117,0.43620417,0.5396081,0.34396076,0,842.1245,685.78754,803.44324,824.7985
2022-07-05 14:03:34.241,0.8111405,0.18511117,0.43620417,0.5396081,0.34396076,0,838.9011,681.3553,810.696,837.6923
2022-07-05 14:03:34.241,0.8111405,0.18511117,0.43620417,0.5396081,0.34396076,0,825.2015,657.5824,792.96704,844.1392
2022-07-05 14:03:34.241,0.8111405,0.18511117,0.43620417,0.5396081,0.34396076,0,820.7692,679.7436,787.326,830.0366
2022-07-05 14:03:34.241,0.8111405,0.18511117,0.43620417,0.5396081,0.34396076,0,819.5604,694.65204,790.14655,806.6667
2022-07-05 14:03:34.241,0.8111405,0.18511117,0.43620417,0.5396081,0.34396076,0,810.696,696.26373,796.99634,808.68134
2022-07-05 14:03:34.242,0.8111405,0.18511117,0.43620417,0.5396081,0.34396076,0,807.47253,691.8315,797.3993,830.0366
2022-07-05 14:03:34.302,0.8111405,0.18511117,0.43620417,0.5396081,0.34396076,0,811.50183,700.293,793.36993,828.8278
2022-07-05 14:03:34.302,0.8111405,0.18511117,0.43620417,0.5396081,0.34396076,0,804.2491,699.4872,798.20514,799.011
2022-07-05 14:03:34.303,0.8111405,0.18511117,0.43620417,0.5396081,0.34396076,0,799.41394,695.8608,801.8315,795.38464
2022-07-05 14:03:34.303,0.8111405,0.18511117,0.43620417,0.5396081,0.34396076,0,804.65204,693.8461,798.60803,813.5165
2022-07-05 14:03:34.303,0.8111405,0.18511117,0.43620417,0.5396081,0.34396076,0,813.5165,692.6374,793.36993,826.0073
2022-07-05 14:03:34.304,0.8111405,0.18511117,0.43620417,0.5396081,0.34396076,0,826.4103,727.6923,801.02563,820.7692
2022-07-05 14:03:34.304,0.8111405,0.18511117,0.43620417,0.5396081,0.34396076,0,834.87177,750.65936,802.6374,815.9341
2022-07-05 14:03:34.304,0.8111405,0.18511117,0.43620417,0.5396081,0.34396076,0,832.0513,707.1429,805.8608,831.6484
2022-07-05 14:03:34.305,0.8111405,0.18511117,0.43620417,0.5396081,0.34396076,0,846.1539,687.8022,800.6227,863.0769
2022-07-05 14:03:34.305,0.8111405,0.18511117,0.43620417,0.5396081,0.34396076,0,859.0476,727.6923,784.10254,857.03296
2022-07-05 14:03:34.305,0.8111405,0.18511117,0.43620417,0.5396081,0.34396076,0,844.1392,735.34796,784.10254,819.9634
2022-07-05 14:03:34.305,0.8111405,0.18511117,0.43620417,0.5396081,0.34396076,0,807.0696,719.6337,785.7143,790.54944
2022-07-05 14:03:34.340,0.8111405,0.18511117,0.43620417,0.5396081,0.34396076,0,793.7729,695.05493,795.38464,801.8315
2022-07-05 14:03:34.341,0.8111405,0.18511117,0.43620417,0.5396081,0.34396076,0,819.5604,697.47253,810.293,828.022
2022-07-05 14:03:34.341,0.8111405,0.18511117,0.43620417,0.5396081,0.34396076,0,823.1868,718.022,804.2491,811.50183
2022-07-05 14:03:34.342,0.8111405,0.18511117,0.43620417,0.5396081,0.34396076,0,834.0659,713.5897,800.2198,817.5458
2022-07-05 14:03:34.342,0.8111405,0.18511117,0.43620417,0.5396081,0.34396076,0,840.5128,708.7546,800.6227,843.73627
2022-07-05 14:03:34.342,0.8111405,0.18511117,0.43620417,0.5396081,0.34396076,0,832.0513,719.6337,799.41394,838.0952
2022-07-05 14:03:34.344,0.8111405,0.18511117,0.43620417,0.5396081,0.34396076,0,840.10986,740.989,810.696,823.9927
2022-07-05 14:03:34.344,0.8111405,0.18511117,0.43620417,0.5396081,0.34396076,0,831.6484,730.5128,819.15753,822.381
2022-07-05 14:03:34.344,0.8111405,0.18511117,0.43620417,0.5396081,0.34396076,0,834.0659,708.7546,809.0842,844.94507
2022-07-05 14:03:34.345,0.8111405,0.18511117,0.43620417,0.5396081,0.34396076,0,842.9304,717.2161,796.1905,864.2857
2022-07-05 14:03:34.345,0.8111405,0.18511117,0.43620417,0.5396081,0.34396076,0,840.5128,723.2601,804.65204,838.0952
2022-07-05 14:03:34.346,0.8111405,0.18511117,0.43620417,0.5396081,0.34396076,0,838.9011,727.6923,812.71063,815.12823
2022-07-05 14:03:34.402,0.8111405,0.18511117,0.43620417,0.5396081,0.34396076,0,828.8278,726.08057,803.8461,819.15753
2022-07-05 14:03:34.403,0.8111405,0.18511117,0.43620417,0.5396081,0.34396076,0,821.978,703.1135,790.54944,826.0073
2022-07-05 14:03:34.404,0.8111405,0.18511117,0.43620417,0.5396081,0.34396076,0,819.9634,715.2015,794.9817,818.3516
2022-07-05 14:03:34.404,0.8111405,0.18511117,0.43620417,0.5396081,0.34396076,0,818.7546,723.663,796.99634,809.4872
2022-07-05 14:03:34.404,0.8111405,0.18511117,0.43620417,0.5396081,0.34396076,0,809.4872,688.60803,785.7143,811.50183
2022-07-05 14:03:34.405,0.8111405,0.18511117,0.43620417,0.5396081,0.34396076,0,806.6667,688.20514,790.54944,830.84247
2022-07-05 14:03:34.405,0.8111405,0.18511117,0.43620417,0.5396081,0.34396076,0,817.1429,715.6044,804.2491,841.31866
2022-07-05 14:03:34.405,0.8111405,0.18511117,0.43620417,0.5396081,0.34396076,0,820.3663,711.978,803.0403,821.5751
2022-07-05 14:03:34.406,0.8111405,0.18511117,0.43620417,0.5396081,0.34396076,0,807.47253,708.7546,802.6374,813.1135
2022-07-05 14:03:34.406,0.8111405,0.18511117,0.43620417,0.5396081,0.34396076,0,813.91943,714.3956,803.8461,834.87177
2022-07-05 14:03:34.406,0.8111405,0.18511117,0.43620417,0.5396081,0.34396076,0,815.12823,711.5751,796.99634,840.9158
2022-07-05 14:03:34.406,0.8111405,0.18511117,0.43620417,0.5396081,0.34396076,0,801.02563,731.7216,799.011,817.9487
2022-07-05 14:03:34.460,0.8111405,0.18511117,0.43620417,0.5396081,0.34396076,0,803.8461,743.8095,798.20514,807.8755
2022-07-05 14:03:34.462,0.8111405,0.18511117,0.43620417,0.5396081,0.34396076,0,805.05493,734.5421,787.72894,811.9048
2022-07-05 14:03:34.462,0.8111405,0.18511117,0.43620417,0.5396081,0.34396076,0,802.23444,726.8865,778.86444,821.1722
2022-07-05 14:03:34.462,0.8111405,0.18511117,0.43620417,0.5396081,0.34396076,0,815.12823,748.24176,778.86444,817.9487
2022-07-05 14:03:34.463,0.8111405,0.18511117,0.43620417,0.5396081,0.34396076,0,829.2308,763.5531,782.0879,805.05493
2022-07-05 14:03:34.463,0.8111405,0.18511117,0.43620417,0.5396081,0.34396076,0,823.1868,752.27106,781.685,805.4579
2022-07-05 14:03:34.463,0.8111405,0.18511117,0.43620417,0.5396081,0.34396076,0,826.8132,748.24176,792.96704,823.1868
2022-07-05 14:03:34.464,0.8111405,0.18511117,0.43620417,0.5396081,0.34396076,0,840.5128,755.4945,801.4286,826.8132
2022-07-05 14:03:34.465,0.8111405,0.18511117,0.43620417,0.5396081,0.34396076,0,837.6923,762.3443,787.72894,807.47253
2022-07-05 14:03:34.466,0.8111405,0.18511117,0.43620417,0.5396081,0.34396076,0,836.08057,762.3443,797.8022,812.71063
2022-07-05 14:03:34.466,0.8111405,0.18511117,0.43620417,0.5396081,0.34396076,0,820.7692,753.0769,798.60803,818.3516
2022-07-05 14:03:34.466,0.8111405,0.18511117,0.43620417,0.5396081,0.34396076,0,804.2491,753.8828,788.5348,805.4579
2022-07-05 14:03:34.467,0.8111405,0.18511117,0.43620417,0.5396081,0.34396076,0,811.50183,767.1795,807.8755,796.1905
2022-07-05 14:03:34.467,0.8111405,0.18511117,0.43620417,0.5396081,0.34396076,0,817.5458,772.4176,810.696,800.6227
2022-07-05 14:03:34.467,0.8111405,0.18511117,0.43620417,0.5396081,0.34396076,0,819.5604,743.8095,799.81683,823.1868
2022-07-05 14:03:34.468,0.8111405,0.18511117,0.43620417,0.5396081,0.34396076,0,811.50183,736.9597,799.011,825.2015
2022-07-05 14:03:34.468,0.8111405,0.18511117,0.43620417,0.5396081,0.34396076,0,799.011,772.8205,799.41394,801.02563
2022-07-05 14:03:34.468,0.8111405,0.18511117,0.43620417,0.5396081,0.34396076,0,804.65204,800.6227,814.3223,797.3993
2022-07-05 14:03:34.469,0.8111405,0.18511117,0.43620417,0.5396081,0.34396076,0,807.47253,779.67035,818.7546,808.68134
2022-07-05 14:03:34.469,0.8111405,0.18511117,0.43620417,0.5396081,0.34396076,0,811.50183,758.71796,815.9341,823.9927
2022-07-05 14:03:34.469,0.8111405,0.18511117,0.43620417,0.5396081,0.34396076,0,820.7692,781.685,840.9158,836.4835
2022-07-05 14:03:34.470,0.8111405,0.18511117,0.43620417,0.5396081,0.34396076,0,815.5311,790.54944,846.1539,821.1722
2022-07-05 14:03:34.470,0.8111405,0.18511117,0.43620417,0.5396081,0.34396076,0,815.9341,785.31134,837.6923,822.7839
2022-07-05 14:03:34.470,0.8111405,0.18511117,0.43620417,0.5396081,0.34396076,0,809.0842,774.0293,825.6044,834.0659
2022-07-05 14:03:34.525,0.8111405,0.18511117,0.43620417,0.5396081,0.34396076,0,797.8022,782.0879,828.8278,820.3663
2022-07-05 14:03:34.526,0.8111405,0.18511117,0.43620417,0.5396081,0.34396076,0,813.91943,809.4872,854.21246,824.7985
2022-07-05 14:03:34.527,0.8111405,0.18511117,0.43620417,0.5396081,0.34396076,0,817.9487,810.293,860.65936,827.2161
2022-07-05 14:03:34.527,0.8111405,0.18511117,0.43620417,0.5396081,0.34396076,0,803.0403,789.34064,841.31866,821.1722
2022-07-05 14:03:34.527,0.8111405,0.18511117,0.43620417,0.5396081,0.34396076,0,799.011,766.3736,841.7216,819.15753
2022-07-05 14:03:34.528,0.8111405,0.18511117,0.43620417,0.5396081,0.34396076,0,781.28204,791.3553,843.73627,793.7729
2022-07-05 14:03:34.528,0.8111405,0.18511117,0.43620417,0.5396081,0.34396076,0,776.04395,819.9634,842.9304,789.7436
2022-07-05 14:03:34.528,0.8111405,0.18511117,0.43620417,0.5396081,0.34396076,0,763.1502,779.2674,844.94507,796.1905
2022-07-05 14:03:34.529,0.8111405,0.18511117,0.43620417,0.5396081,0.34396076,0,749.0476,754.68866,830.84247,782.8938
2022-07-05 14:03:34.529,0.8111405,0.18511117,0.43620417,0.5396081,0.34396076,0,763.5531,772.01465,831.2454,776.04395
2022-07-05 14:03:34.530,0.8111405,0.18511117,0.43620417,0.5396081,0.34396076,0,747.8388,773.22345,837.6923,751.4652
2022-07-05 14:03:34.531,0.8111405,0.18511117,0.43620417,0.5396081,0.34396076,0,720.4396,745.0183,833.2601,734.5421
2022-07-05 14:03:34.556,0.8111405,0.18511117,0.43620417,0.5396081,0.34396076,0,725.6777,733.73627,829.6337,747.03296
2022-07-05 14:03:34.557,0.8111405,0.18511117,0.43620417,0.5396081,0.34396076,0,717.619,742.6007,826.8132,720.84247
2022-07-05 14:03:34.557,0.8111405,0.18511117,0.43620417,0.5396081,0.34396076,0,708.7546,758.71796,817.9487,695.05493
2022-07-05 14:03:34.557,0.8111405,0.18511117,0.43620417,0.5396081,0.34396076,0,723.2601,757.50916,815.5311,714.7985
2022-07-05 14:03:34.558,0.8111405,0.18511117,0.43620417,0.5396081,0.34396076,0,723.663,739.7802,816.337,734.1392
2022-07-05 14:03:34.558,0.8111405,0.18511117,0.43620417,0.5396081,0.34396076,0,708.7546,767.98535,806.6667,721.2454
2022-07-05 14:03:34.558,0.8111405,0.18511117,0.43620417,0.5396081,0.34396076,0,716.4103,780.87915,804.2491,716.8132
2022-07-05 14:03:34.558,0.8111405,0.18511117,0.43620417,0.5396081,0.34396076,0,713.1868,751.06226,812.3077,715.2015
2022-07-05 14:03:34.559,0.8111405,0.18511117,0.43620417,0.5396081,0.34396076,0,703.91943,722.4542,810.696,725.6777
2022-07-05 14:03:34.559,0.8111405,0.18511117,0.43620417,0.5396081,0.34396076,0,714.3956,716.4103,811.50183,744.21246
2022-07-05 14:03:34.559,0.8111405,0.18511117,0.43620417,0.5396081,0.34396076,0,730.10986,736.1539,822.7839,739.7802
2022-07-05 14:03:34.559,0.8111405,0.18511117,0.43620417,0.5396081,0.34396076,0,738.1685,734.1392,822.381,737.3626
2022-07-05 14:03:34.611,0.8111405,0.18511117,0.43620417,0.5396081,0.34396076,0,737.76556,743.8095,816.7399,765.9707
2022-07-05 14:03:34.612,0.8111405,0.18511117,0.43620417,0.5396081,0.34396076,0,748.24176,743.4066,820.3663,786.9231
2022-07-05 14:03:34.612,0.8111405,0.18511117,0.43620417,0.5396081,0.34396076,0,742.6007,734.94507,816.337,757.1062
2022-07-05 14:03:34.612,0.8111405,0.18511117,0.43620417,0.5396081,0.34396076,0,743.8095,745.42126,813.1135,747.8388
2022-07-05 14:03:34.613,0.8111405,0.18511117,0.43620417,0.5396081,0.34396076,0,752.27106,731.7216,802.23444,764.7619
2022-07-05 14:03:34.613,0.8111405,0.18511117,0.43620417,0.5396081,0.34396076,0,756.30035,714.7985,788.5348,775.2381
2022-07-05 14:03:34.614,0.8111405,0.18511117,0.43620417,0.5396081,0.34396076,0,794.57874,740.58606,804.65204,792.96704
2022-07-05 14:03:34.614,0.8111405,0.18511117,0.43620417,0.5396081,0.34396076,0,814.7253,725.6777,807.8755,792.5641
2022-07-05 14:03:34.615,0.8111405,0.18511117,0.43620417,0.5396081,0.34396076,0,793.7729,686.1905,782.8938,786.9231
2022-07-05 14:03:34.615,0.8111405,0.18511117,0.43620417,0.5396081,0.34396076,0,820.3663,706.7399,780.07324,821.5751
2022-07-05 14:03:34.616,0.8111405,0.18511117,0.43620417,0.5396081,0.34396076,0,851.39197,726.4835,796.5934,839.304
2022-07-05 14:03:34.616,0.8111405,0.18511117,0.43620417,0.5396081,0.34396076,0,834.87177,711.1722,798.60803,809.4872
2022-07-05 14:03:34.676,0.8111405,0.18511117,0.43620417,0.5396081,0.34396076,0,809.4872,696.6667,797.8022,787.72894
2022-07-05 14:03:34.677,0.8111405,0.18511117,0.43620417,0.5396081,0.34396076,0,811.50183,683.36993,790.54944,805.4579
2022-07-05 14:03:34.677,0.8111405,0.18511117,0.43620417,0.5396081,0.34396076,0,825.6044,671.28204,789.7436,828.022
2022-07-05 14:03:34.677,0.8111405,0.18511117,0.43620417,0.5396081,0.34396076,0,832.4542,687.3993,789.34064,825.2015
2022-07-05 14:03:34.678,0.8111405,0.18511117,0.43620417,0.5396081,0.34396076,0,832.0513,705.5311,784.10254,814.3223
2022-07-05 14:03:34.678,0.8111405,0.18511117,0.43620417,0.5396081,0.34396076,0,834.0659,713.1868,792.96704,828.4249
2022-07-05 14:03:34.679,0.8111405,0.18511117,0.43620417,0.5396081,0.34396076,0,846.9597,698.68134,794.17584,841.31866
2022-07-05 14:03:34.679,0.8111405,0.18511117,0.43620417,0.5396081,0.34396076,0,851.79486,697.8755,799.011,837.6923
2022-07-05 14:03:34.679,0.8111405,0.18511117,0.43620417,0.5396081,0.34396076,0,853.00366,695.8608,788.93774,838.0952
2022-07-05 14:03:34.680,0.8111405,0.18511117,0.43620417,0.5396081,0.34396076,0,853.00366,666.8498,784.90845,851.39197
2022-07-05 14:03:34.680,0.8111405,0.18511117,0.43620417,0.5396081,0.34396076,0,855.0183,628.1685,797.3993,872.74725
2022-07-05 14:03:34.680,0.8111405,0.18511117,0.43620417,0.5396081,0.34396076,0,854.61536,637.4359,811.50183,866.30035
2022-07-05 14:03:34.709,0.8111405,0.18511117,0.43620417,0.5396081,0.34396076,0,852.6007,697.0696,811.9048,844.1392
2022-07-05 14:03:34.710,0.8111405,0.18511117,0.43620417,0.5396081,0.34396076,0,868.315,711.5751,808.68134,861.06226
2022-07-05 14:03:34.710,0.8111405,0.18511117,0.43620417,0.5396081,0.34396076,0,859.85345,688.60803,796.99634,872.74725
2022-07-05 14:03:34.710,0.8111405,0.18511117,0.43620417,0.5396081,0.34396076,0,835.2747,671.685,786.9231,848.5714
2022-07-05 14:03:34.710,0.8111405,0.18511117,0.43620417,0.5396081,0.34396076,0,829.2308,675.7143,801.02563,826.8132
2022-07-05 14:03:34.711,0.8111405,0.18511117,0.43620417,0.5396081,0.34396076,0,830.4396,699.0842,822.381,832.0513
2022-07-05 14:03:34.711,0.8111405,0.18511117,0.43620417,0.5396081,0.34396076,0,832.8571,690.6227,819.9634,854.21246
2022-07-05 14:03:34.711,0.8111405,0.18511117,0.43620417,0.5396081,0.34396076,0,839.707,641.4652,803.0403,865.89746
2022-07-05 14:03:34.712,0.8111405,0.18511117,0.43620417,0.5396081,0.34396076,0,836.8865,632.6007,809.89014,846.55676
2022-07-05 14:03:34.712,0.8111405,0.18511117,0.43620417,0.5396081,0.34396076,0,817.9487,653.95605,813.5165,828.8278
2022-07-05 14:03:34.712,0.8111405,0.18511117,0.43620417,0.5396081,0.34396076,0,811.9048,651.13556,807.8755,838.9011
2022-07-05 14:03:34.713,0.8111405,0.18511117,0.43620417,0.5396081,0.34396076,0,817.1429,636.2271,801.8315,852.6007
2022-07-05 14:03:34.742,0.8111405,0.18511117,0.43620417,0.5396081,0.34396076,0,819.15753,651.13556,806.26373,834.87177
2022-07-05 14:03:34.743,0.8111405,0.18511117,0.43620417,0.5396081,0.34396076,0,817.1429,668.86444,814.3223,814.3223
2022-07-05 14:03:34.744,0.8111405,0.18511117,0.43620417,0.5396081,0.34396076,0,823.1868,678.5348,821.978,833.2601
2022-07-05 14:03:34.745,0.8111405,0.18511117,0.43620417,0.5396081,0.34396076,0,833.2601,666.8498,815.9341,849.7802
2022-07-05 14:03:34.745,0.8111405,0.18511117,0.43620417,0.5396081,0.34396076,0,838.0952,647.9121,806.6667,851.39197
2022-07-05 14:03:34.745,0.8111405,0.18511117,0.43620417,0.5396081,0.34396076,0,842.1245,676.52014,801.4286,845.7509
2022-07-05 14:03:34.746,0.8111405,0.18511117,0.43620417,0.5396081,0.34396076,0,842.9304,702.3077,813.5165,847.3626
2022-07-05 14:03:34.746,0.8111405,0.18511117,0.43620417,0.5396081,0.34396076,0,846.55676,671.28204,818.7546,856.63007
2022-07-05 14:03:34.746,0.8111405,0.18511117,0.43620417,0.5396081,0.34396076,0,848.1685,655.9707,810.293,855.82416
2022-07-05 14:03:34.746,0.8111405,0.18511117,0.43620417,0.5396081,0.34396076,0,854.21246,703.5165,830.0366,860.2564
2022-07-05 14:03:34.747,0.8111405,0.18511117,0.43620417,0.5396081,0.34396076,0,864.68866,720.4396,831.2454,859.85345
2022-07-05 14:03:34.747,0.8111405,0.18511117,0.43620417,0.5396081,0.34396076,0,844.1392,662.01465,797.3993,852.1978
2022-07-05 14:03:34.809,0.8111405,0.18511117,0.43620417,0.5396081,0.34396076,0,833.2601,658.3883,796.5934,855.42126
2022-07-05 14:03:34.810,0.8111405,0.18511117,0.43620417,0.5396081,0.34396076,0,833.2601,705.5311,821.978,837.28937
2022-07-05 14:03:34.810,0.8111405,0.18511117,0.43620417,0.5396081,0.34396076,0,825.2015,700.696,818.3516,817.5458
2022-07-05 14:03:34.811,0.8111405,0.18511117,0.43620417,0.5396081,0.34396076,0,823.1868,689.41394,810.293,827.2161
2022-07-05 14:03:34.811,0.8111405,0.18511117,0.43620417,0.5396081,0.34396076,0,824.7985,688.20514,805.8608,839.304
2022-07-05 14:03:34.811,0.8111405,0.18511117,0.43620417,0.5396081,0.34396076,0,827.2161,715.6044,806.6667,837.28937
2022-07-05 14:03:34.812,0.8111405,0.18511117,0.43620417,0.5396081,0.34396076,0,834.4689,743.00366,816.7399,835.6777
2022-07-05 14:03:34.812,0.8111405,0.18511117,0.43620417,0.5396081,0.34396076,0,832.0513,726.4835,819.15753,838.0952
2022-07-05 14:03:34.812,0.8111405,0.18511117,0.43620417,0.5396081,0.34396076,0,837.28937,699.4872,816.7399,852.1978
2022-07-05 14:03:34.812,0.8111405,0.18511117,0.43620417,0.5396081,0.34396076,0,849.3773,704.7253,821.5751,863.47986
2022-07-05 14:03:34.813,0.8111405,0.18511117,0.43620417,0.5396081,0.34396076,0,832.4542,716.8132,812.3077,837.6923
2022-07-05 14:03:34.813,0.8111405,0.18511117,0.43620417,0.5396081,0.34396076,0,817.1429,714.3956,813.5165,818.3516
2022-07-05 14:03:34.877,0.8111405,0.18511117,0.43620417,0.5396081,0.34396076,0,825.2015,711.1722,824.7985,836.8865
2022-07-05 14:03:34.878,0.8111405,0.18511117,0.43620417,0.5396081,0.34396076,0,832.0513,723.663,828.022,842.9304
2022-07-05 14:03:34.878,0.8111405,0.18511117,0.43620417,0.5396081,0.34396076,0,826.8132,737.3626,829.2308,819.9634
2022-07-05 14:03:34.878,0.8111405,0.18511117,0.43620417,0.5396081,0.34396076,0,820.7692,730.5128,826.8132,817.1429
2022-07-05 14:03:34.880,0.8111405,0.18511117,0.43620417,0.5396081,0.34396076,0,822.381,720.0366,826.8132,834.0659
2022-07-05 14:03:34.880,0.8111405,0.18511117,0.43620417,0.5396081,0.34396076,0,832.4542,730.9158,824.3956,841.31866
2022-07-05 14:03:34.880,0.8111405,0.18511117,0.43620417,0.5396081,0.34396076,0,831.6484,761.9414,817.5458,830.0366
2022-07-05 14:03:34.881,0.8111405,0.18511117,0.43620417,0.5396081,0.34396076,0,831.2454,743.00366,809.89014,815.12823
2022-07-05 14:03:34.881,0.8111405,0.18511117,0.43620417,0.5396081,0.34396076,0,844.1392,695.4579,815.9341,828.4249
2022-07-05 14:03:34.882,0.8111405,0.18511117,0.43620417,0.5396081,0.34396076,0,819.9634,701.9048,815.12823,830.4396
2022-07-05 14:03:34.882,0.8111405,0.18511117,0.43620417,0.5396081,0.34396076,0,800.2198,740.18317,820.7692,810.293
2022-07-05 14:03:34.883,0.8111405,0.18511117,0.43620417,0.5396081,0.34396076,0,803.8461,758.315,825.6044,799.81683
2022-07-05 14:03:34.909,0.8111405,0.18511117,0.43620417,0.5396081,0.34396076,0,799.41394,743.00366,820.7692,803.0403
2022-07-05 14:03:34.910,0.8111405,0.18511117,0.43620417,0.5396081,0.34396076,0,801.8315,724.4689,799.011,821.1722
2022-07-05 14:03:34.910,0.8111405,0.18511117,0.43620417,0.5396081,0.34396076,0,804.2491,722.0513,771.6117,822.7839
2022-07-05 14:03:34.910,0.8111405,0.18511117,0.43620417,0.5396081,0.34396076,0,796.1905,751.4652,776.8498,807.47253
2022-07-05 14:03:34.911,0.8111405,0.18511117,0.43620417,0.5396081,0.34396076,0,795.78754,751.06226,786.1172,803.0403
2022-07-05 14:03:34.911,0.8111405,0.18511117,0.43620417,0.5396081,0.34396076,0,811.50183,726.4835,765.9707,821.978
2022-07-05 14:03:34.911,0.8111405,0.18511117,0.43620417,0.5396081,0.34396076,0,821.1722,736.1539,771.2088,838.9011
2022-07-05 14:03:34.912,0.8111405,0.18511117,0.43620417,0.5396081,0.34396076,0,792.1612,740.18317,804.2491,807.47253
2022-07-05 14:03:34.912,0.8111405,0.18511117,0.43620417,0.5396081,0.34396076,0,765.56775,745.42126,807.47253,781.28204
2022-07-05 14:03:34.912,0.8111405,0.18511117,0.43620417,0.5396081,0.34396076,0,780.4762,742.6007,795.38464,807.47253
2022-07-05 14:03:34.913,0.8111405,0.18511117,0.43620417,0.5396081,0.34396076,0,797.3993,723.663,803.8461,826.8132
2022-07-05 14:03:34.913,0.8111405,0.18511117,0.43620417,0.5396081,0.34396076,0,769.59705,723.2601,814.7253,798.20514
2022-07-05 14:03:34.943,0.8111405,0.18511117,0.43620417,0.5396081,0.34396076,0,766.77655,742.6007,829.2308,790.9524
