TimeStamp,Delta_AF8,Theta_AF8,Alpha_AF8,Beta_AF8,Gamma_AF8,stimulus_time,RAW_TP9,RAW_AF7,RAW_AF8,RAW_TP10
2022-07-05 13:58:30.000,0.8946189,0.7444531,0.9432277,0.53724015,0.4342861,0,712.7839,770,759.92676,703.91943
2022-07-05 13:58:30.000,0.8946189,0.7444531,0.9432277,0.53724015,0.4342861,0,733.3333,805.05493,825.6044,741.79486
2022-07-05 13:58:30.000,0.8946189,0.7444531,0.9432277,0.53724015,0.4342861,0,743.8095,805.4579,826.4103,752.27106
2022-07-05 13:58:30.000,0.94521606,0.7466833,0.9412655,0.5585205,0.42054895,0,736.9597,776.04395,765.16486,726.08057
2022-07-05 13:58:30.000,0.94521606,0.7466833,0.9412655,0.5585205,0.42054895,0,724.4689,768.3883,754.68866,716.8132
2022-07-05 13:58:30.000,0.94521606,0.7466833,0.9412655,0.5585205,0.42054895,0,742.1978,806.6667,818.7546,764.7619
2022-07-05 13:58:30.000,0.94521606,0.7466833,0.9412655,0.5585205,0.42054895,0,763.1502,832.4542,845.34796,794.9817
2022-07-05 13:58:30.000,0.94521606,0.7466833,0.9412655,0.5585205,0.42054895,0,743.8095,789.7436,784.90845,753.47986
2022-07-05 13:58:30.000,0.94521606,0.7466833,0.9412655,0.5585205,0.42054895,0,725.6777,754.68866,755.4945,733.3333
2022-07-05 13:58:30.000,0.94521606,0.7466833,0.9412655,0.5585205,0.42054895,0,742.6007,767.98535,805.05493,767.1795
2022-07-05 13:58:30.000,0.94521606,0.7466833,0.9412655,0.5585205,0.42054895,0,777.6557,799.41394,850.989,803.44324
2022-07-05 13:58:30.000,0.94521606,0.7466833,0.9412655,0.5585205,0.42054895,0,764.7619,782.49084,801.4286,778.86444
2022-07-05 13:58:30.000,0.94521606,0.7466833,0.9412655,0.5585205,0.42054895,0,740.58606,757.50916,754.68866,741.39197
2022-07-05 13:58:30.000,0.94521606,0.7466833,0.9412655,0.5585205,0.42054895,0,752.674,770.80585,791.75824,769.19415
2022-07-05 13:58:30.000,0.94521606,0.7466833,0.9412655,0.5585205,0.42054895,0,782.8938,811.9048,850.58606,822.381
2022-07-05 13:58:30.251,0.94521606,0.7466833,0.9412655,0.5585205,0.42054895,0,781.28204,805.8608,826.0073,807.8755
2022-07-05 13:58:30.251,0.94521606,0.7466833,0.9412655,0.5585205,0.42054895,0,759.5238,764.7619,764.35895,760.7326
2022-07-05 13:58:30.252,0.94521606,0.7466833,0.9412655,0.5585205,0.42054895,0,763.1502,786.9231,777.25275,760.32965
2022-07-05 13:58:30.252,0.94521606,0.7466833,0.9412655,0.5585205,0.42054895,0,796.1905,848.1685,850.989,809.89014
2022-07-05 13:58:30.252,0.94521606,0.7466833,0.9412655,0.5585205,0.42054895,0,800.2198,842.1245,850.18317,811.50183
2022-07-05 13:58:30.253,0.94521606,0.7466833,0.9412655,0.5585205,0.42054895,0,771.6117,798.20514,776.04395,758.315
2022-07-05 13:58:30.253,0.94521606,0.7466833,0.9412655,0.5585205,0.42054895,0,763.1502,780.07324,759.92676,750.2564
2022-07-05 13:58:30.253,0.94521606,0.7466833,0.9412655,0.5585205,0.42054895,0,782.0879,801.02563,818.3516,786.52014
2022-07-05 13:58:30.253,0.94521606,0.7466833,0.9412655,0.5585205,0.42054895,0,804.2491,830.84247,849.7802,803.0403
2022-07-05 13:58:30.287,0.94521606,0.7466833,0.9412655,0.5585205,0.42054895,0,787.72894,812.3077,788.93774,769.19415
2022-07-05 13:58:30.288,0.94521606,0.7466833,0.9412655,0.5585205,0.42054895,0,770.40295,778.86444,747.4359,743.00366
2022-07-05 13:58:30.288,0.94521606,0.7466833,0.9412655,0.5585205,0.42054895,0,782.49084,790.14655,792.5641,772.01465
2022-07-05 13:58:30.288,0.94521606,0.7466833,0.9412655,0.5585205,0.42054895,0,807.8755,825.6044,851.79486,813.1135
2022-07-05 13:58:30.288,0.94521606,0.7466833,0.9412655,0.5585205,0.42054895,0,799.011,807.8755,805.05493,791.75824
2022-07-05 13:58:30.289,0.9747774,0.7377171,0.9344329,0.57498306,0.40860927,0,777.6557,794.57874,750.65936,752.674
2022-07-05 13:58:30.290,0.9747774,0.7377171,0.9344329,0.57498306,0.40860927,0,774.83514,811.9048,787.72894,763.5531
2022-07-05 13:58:30.290,0.9747774,0.7377171,0.9344329,0.57498306,0.40860927,0,807.8755,823.5897,846.55676,810.696
2022-07-05 13:58:30.291,0.9747774,0.7377171,0.9344329,0.57498306,0.40860927,0,816.7399,811.0989,828.022,812.71063
2022-07-05 13:58:30.291,0.9747774,0.7377171,0.9344329,0.57498306,0.40860927,0,787.326,776.04395,766.3736,772.4176
2022-07-05 13:58:30.291,0.9747774,0.7377171,0.9344329,0.57498306,0.40860927,0,784.10254,767.98535,770,766.3736
2022-07-05 13:58:30.292,0.9747774,0.7377171,0.9344329,0.57498306,0.40860927,0,808.68134,807.8755,836.8865,811.0989
2022-07-05 13:58:30.292,0.9747774,0.7377171,0.9344329,0.57498306,0.40860927,0,819.5604,820.7692,842.9304,823.9927
2022-07-05 13:58:30.292,0.9747774,0.7377171,0.9344329,0.57498306,0.40860927,0,796.1905,792.1612,779.67035,782.8938
2022-07-05 13:58:30.293,0.9747774,0.7377171,0.9344329,0.57498306,0.40860927,0,780.07324,778.46155,766.3736,770.40295
2022-07-05 13:58:30.293,0.9747774,0.7377171,0.9344329,0.57498306,0.40860927,0,788.1319,814.3223,822.381,802.23444
2022-07-05 13:58:30.293,0.9747774,0.7377171,0.9344329,0.57498306,0.40860927,0,811.9048,845.34796,857.4359,834.0659
2022-07-05 13:58:30.293,0.9747774,0.7377171,0.9344329,0.57498306,0.40860927,0,796.1905,814.7253,797.3993,799.81683
2022-07-05 13:58:30.294,0.9747774,0.7377171,0.9344329,0.57498306,0.40860927,0,774.0293,793.36993,756.30035,763.1502
2022-07-05 13:58:30.294,0.9747774,0.7377171,0.9344329,0.57498306,0.40860927,0,792.1612,809.0842,801.8315,789.34064
2022-07-05 13:58:30.294,0.9747774,0.7377171,0.9344329,0.57498306,0.40860927,0,825.2015,844.1392,855.82416,832.4542
2022-07-05 13:58:30.294,0.9747774,0.7377171,0.9344329,0.57498306,0.40860927,0,814.3223,831.6484,816.337,811.0989
2022-07-05 13:58:30.295,0.9747774,0.7377171,0.9344329,0.57498306,0.40860927,0,786.9231,796.99634,757.50916,764.7619
2022-07-05 13:58:30.295,0.9747774,0.7377171,0.9344329,0.57498306,0.40860927,0,792.1612,803.8461,780.87915,771.6117
2022-07-05 13:58:30.318,0.9747774,0.7377171,0.9344329,0.57498306,0.40860927,0,825.2015,846.1539,844.1392,816.7399
2022-07-05 13:58:30.318,0.9747774,0.7377171,0.9344329,0.57498306,0.40860927,0,832.4542,854.21246,834.0659,815.5311
2022-07-05 13:58:30.318,0.9747774,0.7377171,0.9344329,0.57498306,0.40860927,0,801.8315,818.3516,770.40295,770.40295
2022-07-05 13:58:30.319,0.9747774,0.7377171,0.9344329,0.57498306,0.40860927,0,789.34064,793.36993,761.9414,766.3736
2022-07-05 13:58:30.319,0.9747774,0.7377171,0.9344329,0.57498306,0.40860927,0,815.5311,825.2015,827.619,821.978
2022-07-05 13:58:30.319,0.9747774,0.7377171,0.9344329,0.57498306,0.40860927,0,833.663,858.6447,852.6007,846.9597
2022-07-05 13:58:30.319,0.9747774,0.7377171,0.9344329,0.57498306,0.40860927,0,807.8755,827.619,790.54944,802.6374
2022-07-05 13:58:30.320,0.98549676,0.7281706,0.93260217,0.5841995,0.39842847,0,788.1319,784.90845,759.5238,776.04395
2022-07-05 13:58:30.321,0.98549676,0.7281706,0.93260217,0.5841995,0.39842847,0,807.0696,796.1905,813.1135,809.4872
2022-07-05 13:58:30.321,0.98549676,0.7281706,0.93260217,0.5841995,0.39842847,0,839.304,829.2308,859.0476,848.5714
2022-07-05 13:58:30.321,0.98549676,0.7281706,0.93260217,0.5841995,0.39842847,0,818.7546,801.4286,803.0403,814.7253
2022-07-05 13:58:30.322,0.98549676,0.7281706,0.93260217,0.5841995,0.39842847,0,784.90845,764.7619,751.4652,772.4176
2022-07-05 13:58:30.351,0.98549676,0.7281706,0.93260217,0.5841995,0.39842847,0,798.20514,787.72894,800.2198,798.60803
2022-07-05 13:58:30.352,0.98549676,0.7281706,0.93260217,0.5841995,0.39842847,0,830.0366,837.28937,867.1062,842.9304
2022-07-05 13:58:30.352,0.98549676,0.7281706,0.93260217,0.5841995,0.39842847,0,816.337,826.0073,821.1722,827.619
2022-07-05 13:58:30.352,0.98549676,0.7281706,0.93260217,0.5841995,0.39842847,0,788.1319,791.75824,757.1062,788.1319
2022-07-05 13:58:30.352,0.98549676,0.7281706,0.93260217,0.5841995,0.39842847,0,782.8938,791.75824,778.46155,786.1172
2022-07-05 13:58:30.353,0.98549676,0.7281706,0.93260217,0.5841995,0.39842847,0,809.4872,831.6484,846.55676,828.8278
2022-07-05 13:58:30.353,0.98549676,0.7281706,0.93260217,0.5841995,0.39842847,0,820.3663,846.55676,851.79486,836.8865
2022-07-05 13:58:30.358,0.98549676,0.7281706,0.93260217,0.5841995,0.39842847,0,791.75824,794.9817,781.685,788.5348
2022-07-05 13:58:30.358,0.98549676,0.7281706,0.93260217,0.5841995,0.39842847,0,772.4176,761.13556,761.9414,771.2088
2022-07-05 13:58:30.359,0.98549676,0.7281706,0.93260217,0.5841995,0.39842847,0,793.36993,798.20514,831.2454,809.89014
2022-07-05 13:58:30.359,0.98549676,0.7281706,0.93260217,0.5841995,0.39842847,0,821.1722,827.2161,862.674,838.9011
2022-07-05 13:58:30.359,0.98549676,0.7281706,0.93260217,0.5841995,0.39842847,0,805.4579,804.2491,802.6374,801.02563
2022-07-05 13:58:30.386,0.98549676,0.7281706,0.93260217,0.5841995,0.39842847,0,783.2967,757.50916,760.32965,771.2088
2022-07-05 13:58:30.387,0.98549676,0.7281706,0.93260217,0.5841995,0.39842847,0,791.75824,741.79486,798.60803,803.44324
2022-07-05 13:58:30.387,0.98549676,0.7281706,0.93260217,0.5841995,0.39842847,0,811.9048,794.17584,854.21246,837.28937
2022-07-05 13:58:30.388,0.98549676,0.7281706,0.93260217,0.5841995,0.39842847,0,788.93774,785.7143,803.0403,807.0696
2022-07-05 13:58:30.388,0.98549676,0.7281706,0.93260217,0.5841995,0.39842847,0,770.80585,772.4176,755.09155,770.40295
2022-07-05 13:58:30.388,0.98549676,0.7281706,0.93260217,0.5841995,0.39842847,0,783.69965,850.18317,804.65204,795.78754
2022-07-05 13:58:30.389,0.98549676,0.7281706,0.93260217,0.5841995,0.39842847,0,811.9048,907.3993,866.7033,849.7802
2022-07-05 13:58:30.389,0.98549676,0.7281706,0.93260217,0.5841995,0.39842847,0,806.6667,874.7619,834.87177,829.2308
2022-07-05 13:58:30.389,0.98549676,0.7281706,0.93260217,0.5841995,0.39842847,0,778.0586,813.91943,762.74725,776.04395
2022-07-05 13:58:30.389,0.9930088,0.7245937,0.93260217,0.58717906,0.3926838,0,778.46155,782.8938,769.59705,779.67035
2022-07-05 13:58:30.391,0.9930088,0.7245937,0.93260217,0.58717906,0.3926838,0,806.6667,817.5458,835.6777,819.9634
2022-07-05 13:58:30.391,0.9930088,0.7245937,0.93260217,0.58717906,0.3926838,0,817.9487,823.9927,836.08057,826.0073
2022-07-05 13:58:30.446,0.9930088,0.7245937,0.93260217,0.58717906,0.3926838,0,793.36993,776.8498,771.6117,790.9524
2022-07-05 13:58:30.447,0.9930088,0.7245937,0.93260217,0.58717906,0.3926838,0,782.0879,770.80585,759.12085,779.2674
2022-07-05 13:58:30.447,0.9930088,0.7245937,0.93260217,0.58717906,0.3926838,0,807.0696,813.91943,826.4103,816.7399
2022-07-05 13:58:30.448,0.9930088,0.7245937,0.93260217,0.58717906,0.3926838,0,830.84247,845.34796,866.7033,850.18317
2022-07-05 13:58:30.448,0.9930088,0.7245937,0.93260217,0.58717906,0.3926838,0,810.293,807.47253,804.2491,815.5311
2022-07-05 13:58:30.448,0.9930088,0.7245937,0.93260217,0.58717906,0.3926838,0,790.14655,781.685,762.3443,781.28204
2022-07-05 13:58:30.449,0.9930088,0.7245937,0.93260217,0.58717906,0.3926838,0,807.47253,822.7839,805.8608,818.3516
2022-07-05 13:58:30.449,0.9930088,0.7245937,0.93260217,0.58717906,0.3926838,0,838.9011,837.28937,853.00366,857.8388
2022-07-05 13:58:30.449,0.9930088,0.7245937,0.93260217,0.58717906,0.3926838,0,829.6337,796.5934,815.5311,826.4103
2022-07-05 13:58:30.450,0.9930088,0.7245937,0.93260217,0.58717906,0.3926838,0,796.1905,768.3883,759.12085,783.2967
2022-07-05 13:58:30.450,0.9930088,0.7245937,0.93260217,0.58717906,0.3926838,0,807.0696,804.65204,785.7143,800.6227
2022-07-05 13:58:30.450,0.9930088,0.7245937,0.93260217,0.58717906,0.3926838,0,841.7216,848.1685,857.03296,852.1978
2022-07-05 13:58:30.503,0.9930088,0.7245937,0.93260217,0.58717906,0.3926838,0,830.84247,816.337,839.304,841.31866
2022-07-05 13:58:30.504,0.9930088,0.7245937,0.93260217,0.58717906,0.3926838,0,796.5934,771.6117,768.3883,794.17584
2022-07-05 13:58:30.504,0.9930088,0.7245937,0.93260217,0.58717906,0.3926838,0,786.1172,777.25275,765.16486,784.10254
2022-07-05 13:58:30.505,0.9930088,0.7245937,0.93260217,0.58717906,0.3926838,0,817.1429,824.7985,833.2601,829.6337
2022-07-05 13:58:30.505,0.9930088,0.7245937,0.93260217,0.58717906,0.3926838,0,838.49817,830.0366,849.3773,850.58606
2022-07-05 13:58:30.505,0.9930088,0.7245937,0.93260217,0.58717906,0.3926838,0,805.05493,794.17584,782.49084,795.78754
2022-07-05 13:58:30.506,0.9930088,0.7245937,0.93260217,0.58717906,0.3926838,0,786.9231,789.34064,765.56775,772.4176
2022-07-05 13:58:30.506,0.9930088,0.7245937,0.93260217,0.58717906,0.3926838,0,812.71063,805.05493,824.3956,814.7253
2022-07-05 13:58:30.506,0.9930088,0.7245937,0.93260217,0.58717906,0.3926838,0,832.0513,823.5897,857.8388,843.3333
2022-07-05 13:58:30.506,0.9930088,0.7245937,0.93260217,0.58717906,0.3926838,0,808.2784,801.8315,796.5934,802.6374
2022-07-05 13:58:30.507,0.9930088,0.7245937,0.93260217,0.58717906,0.3926838,0,790.9524,782.0879,751.06226,768.7912
2022-07-05 13:58:30.507,1.0031965,0.72133017,0.93260217,0.58637905,0.38646552,0,805.4579,796.5934,790.9524,792.5641
2022-07-05 13:58:30.537,1.0031965,0.72133017,0.93260217,0.58637905,0.38646552,0,831.2454,834.0659,848.5714,834.4689
2022-07-05 13:58:30.538,1.0031965,0.72133017,0.93260217,0.58637905,0.38646552,0,831.6484,835.6777,814.7253,821.1722
2022-07-05 13:58:30.538,1.0031965,0.72133017,0.93260217,0.58637905,0.38646552,0,813.1135,797.8022,756.30035,778.0586
2022-07-05 13:58:30.539,1.0031965,0.72133017,0.93260217,0.58637905,0.38646552,0,804.65204,794.17584,773.22345,781.685
2022-07-05 13:58:30.539,1.0031965,0.72133017,0.93260217,0.58637905,0.38646552,0,824.7985,834.87177,836.08057,829.6337
2022-07-05 13:58:30.539,1.0031965,0.72133017,0.93260217,0.58637905,0.38646552,0,830.4396,860.2564,834.0659,830.0366
2022-07-05 13:58:30.539,1.0031965,0.72133017,0.93260217,0.58637905,0.38646552,0,796.1905,816.7399,771.2088,780.87915
2022-07-05 13:58:30.540,1.0031965,0.72133017,0.93260217,0.58637905,0.38646552,0,781.685,777.25275,763.1502,772.8205
2022-07-05 13:58:30.540,1.0031965,0.72133017,0.93260217,0.58637905,0.38646552,0,807.8755,772.8205,818.7546,812.71063
2022-07-05 13:58:30.540,1.0031965,0.72133017,0.93260217,0.58637905,0.38646552,0,819.5604,759.5238,827.619,830.4396
2022-07-05 13:58:30.541,1.0031965,0.72133017,0.93260217,0.58637905,0.38646552,0,796.5934,759.12085,764.35895,787.72894
2022-07-05 13:58:30.541,1.0031965,0.72133017,0.93260217,0.58637905,0.38646552,0,775.64105,756.7033,743.8095,762.74725
2022-07-05 13:58:30.596,1.0031965,0.72133017,0.93260217,0.58637905,0.38646552,0,790.14655,785.31134,801.4286,799.011
2022-07-05 13:58:30.597,1.0031965,0.72133017,0.93260217,0.58637905,0.38646552,0,819.5604,829.6337,842.52747,835.2747
2022-07-05 13:58:30.598,1.0031965,0.72133017,0.93260217,0.58637905,0.38646552,0,807.47253,798.60803,786.9231,809.4872
2022-07-05 13:58:30.598,1.0031965,0.72133017,0.93260217,0.58637905,0.38646552,0,782.8938,785.31134,751.06226,779.2674
2022-07-05 13:58:30.599,1.0031965,0.72133017,0.93260217,0.58637905,0.38646552,0,793.7729,870.32965,815.12823,805.4579
2022-07-05 13:58:30.599,1.0031965,0.72133017,0.93260217,0.58637905,0.38646552,0,824.3956,926.337,879.19415,848.1685
2022-07-05 13:58:30.599,1.0031965,0.72133017,0.93260217,0.58637905,0.38646552,0,817.5458,869.12085,838.49817,835.2747
2022-07-05 13:58:30.600,1.0031965,0.72133017,0.93260217,0.58637905,0.38646552,0,805.05493,806.26373,779.2674,805.05493
2022-07-05 13:58:30.600,1.0031965,0.72133017,0.93260217,0.58637905,0.38646552,0,811.0989,803.0403,789.34064,806.6667
2022-07-05 13:58:30.600,1.0031965,0.72133017,0.93260217,0.58637905,0.38646552,0,828.4249,828.8278,847.76556,841.7216
2022-07-05 13:58:30.600,1.0031965,0.72133017,0.93260217,0.58637905,0.38646552,0,828.8278,821.5751,846.1539,848.5714
2022-07-05 13:58:30.601,1.0031965,0.72133017,0.93260217,0.58637905,0.38646552,0,799.41394,777.6557,774.0293,805.05493
2022-07-05 13:58:30.630,1.0031965,0.72133017,0.93260217,0.58637905,0.38646552,0,787.72894,772.4176,762.3443,790.54944
2022-07-05 13:58:30.631,1.0101663,0.71207374,0.93260217,0.5846776,0.37714466,0,810.696,814.7253,836.4835,828.022
2022-07-05 13:58:30.633,1.0101663,0.71207374,0.93260217,0.5846776,0.37714466,0,838.0952,829.6337,864.2857,853.8095
2022-07-05 13:58:30.633,1.0101663,0.71207374,0.93260217,0.5846776,0.37714466,0,818.3516,794.17584,795.38464,813.91943
2022-07-05 13:58:30.634,1.0101663,0.71207374,0.93260217,0.5846776,0.37714466,0,790.14655,784.10254,761.53845,781.28204
2022-07-05 13:58:30.634,1.0101663,0.71207374,0.93260217,0.5846776,0.37714466,0,806.6667,817.9487,816.7399,809.4872
2022-07-05 13:58:30.634,1.0101663,0.71207374,0.93260217,0.5846776,0.37714466,0,844.1392,836.8865,868.315,848.97437
2022-07-05 13:58:30.634,1.0101663,0.71207374,0.93260217,0.5846776,0.37714466,0,837.28937,802.6374,822.7839,838.49817
2022-07-05 13:58:30.635,1.0101663,0.71207374,0.93260217,0.5846776,0.37714466,0,809.0842,769.19415,767.1795,807.47253
2022-07-05 13:58:30.635,1.0101663,0.71207374,0.93260217,0.5846776,0.37714466,0,807.8755,773.6264,787.326,803.44324
2022-07-05 13:58:30.635,1.0101663,0.71207374,0.93260217,0.5846776,0.37714466,0,842.1245,822.7839,852.6007,843.3333
2022-07-05 13:58:30.636,1.0101663,0.71207374,0.93260217,0.5846776,0.37714466,0,845.34796,833.2601,837.28937,846.9597
2022-07-05 13:58:30.684,1.0101663,0.71207374,0.93260217,0.5846776,0.37714466,0,806.26373,789.34064,768.3883,798.60803
2022-07-05 13:58:30.685,1.0101663,0.71207374,0.93260217,0.5846776,0.37714466,0,800.6227,783.2967,769.19415,797.3993
2022-07-05 13:58:30.685,1.0101663,0.71207374,0.93260217,0.5846776,0.37714466,0,840.10986,834.0659,841.7216,855.0183
2022-07-05 13:58:30.685,1.0101663,0.71207374,0.93260217,0.5846776,0.37714466,0,857.8388,848.1685,853.4066,869.12085
2022-07-05 13:58:30.686,1.0101663,0.71207374,0.93260217,0.5846776,0.37714466,0,843.3333,812.3077,777.6557,827.2161
2022-07-05 13:58:30.686,1.0101663,0.71207374,0.93260217,0.5846776,0.37714466,0,842.1245,802.23444,756.30035,816.337
2022-07-05 13:58:30.686,1.0101663,0.71207374,0.93260217,0.5846776,0.37714466,0,857.03296,834.4689,827.619,859.85345
2022-07-05 13:58:30.687,1.0101663,0.71207374,0.93260217,0.5846776,0.37714466,0,866.30035,840.9158,864.68866,879.59705
2022-07-05 13:58:30.687,1.0101663,0.71207374,0.93260217,0.5846776,0.37714466,0,849.7802,803.44324,793.36993,833.2601
2022-07-05 13:58:30.687,1.0101663,0.71207374,0.93260217,0.5846776,0.37714466,0,833.2601,790.14655,752.27106,803.8461
2022-07-05 13:58:30.688,1.0101663,0.71207374,0.93260217,0.5846776,0.37714466,0,851.39197,810.293,805.4579,836.8865
2022-07-05 13:58:30.688,1.0101663,0.71207374,0.93260217,0.5846776,0.37714466,0,886.04395,834.87177,866.30035,880
2022-07-05 13:58:30.709,1.0101663,0.71207374,0.93260217,0.5846776,0.37714466,0,869.12085,784.10254,815.9341,853.8095
2022-07-05 13:58:30.710,1.0101663,0.71207374,0.93260217,0.5846776,0.37714466,0,837.6923,732.9304,747.8388,809.0842
2022-07-05 13:58:30.710,1.0101663,0.71207374,0.93260217,0.5846776,0.37714466,0,840.9158,756.7033,771.6117,819.5604
2022-07-05 13:58:30.710,1.010018,0.69717085,0.93260217,0.5832146,0.3636483,0,871.13556,805.4579,838.49817,865.4945
2022-07-05 13:58:30.712,1.010018,0.69717085,0.93260217,0.5832146,0.3636483,0,869.5238,819.15753,822.381,855.82416
2022-07-05 13:58:30.712,1.010018,0.69717085,0.93260217,0.5832146,0.3636483,0,834.87177,789.7436,752.674,808.68134
2022-07-05 13:58:30.712,1.010018,0.69717085,0.93260217,0.5832146,0.3636483,0,817.5458,800.6227,761.9414,798.60803
2022-07-05 13:58:30.712,1.010018,0.69717085,0.93260217,0.5832146,0.3636483,0,843.3333,883.6264,846.55676,844.1392
2022-07-05 13:58:30.712,1.010018,0.69717085,0.93260217,0.5832146,0.3636483,0,864.68866,908.60803,870.7326,866.30035
2022-07-05 13:58:30.713,1.010018,0.69717085,0.93260217,0.5832146,0.3636483,0,832.8571,844.5421,791.3553,818.7546
2022-07-05 13:58:30.713,1.010018,0.69717085,0.93260217,0.5832146,0.3636483,0,819.15753,811.9048,756.30035,797.3993
2022-07-05 13:58:30.713,1.010018,0.69717085,0.93260217,0.5832146,0.3636483,0,846.1539,832.0513,814.7253,838.49817
2022-07-05 13:58:30.768,1.010018,0.69717085,0.93260217,0.5832146,0.3636483,0,863.0769,864.68866,861.8681,873.95605
2022-07-05 13:58:30.769,1.010018,0.69717085,0.93260217,0.5832146,0.3636483,0,840.5128,837.6923,806.6667,838.49817
2022-07-05 13:58:30.769,1.010018,0.69717085,0.93260217,0.5832146,0.3636483,0,823.5897,792.1612,756.7033,805.05493
2022-07-05 13:58:30.770,1.010018,0.69717085,0.93260217,0.5832146,0.3636483,0,838.49817,809.4872,801.02563,828.4249
2022-07-05 13:58:30.770,1.010018,0.69717085,0.93260217,0.5832146,0.3636483,0,863.8828,848.5714,862.27106,867.9121
2022-07-05 13:58:30.770,1.010018,0.69717085,0.93260217,0.5832146,0.3636483,0,850.989,832.8571,825.2015,846.55676
2022-07-05 13:58:30.770,1.010018,0.69717085,0.93260217,0.5832146,0.3636483,0,815.12823,811.0989,760.7326,797.8022
2022-07-05 13:58:30.771,1.010018,0.69717085,0.93260217,0.5832146,0.3636483,0,806.6667,795.38464,770.40295,802.6374
2022-07-05 13:58:30.771,1.010018,0.69717085,0.93260217,0.5832146,0.3636483,0,838.49817,814.3223,842.9304,855.42126
2022-07-05 13:58:30.771,1.010018,0.69717085,0.93260217,0.5832146,0.3636483,0,854.61536,826.4103,846.1539,865.4945
2022-07-05 13:58:30.771,1.010018,0.69717085,0.93260217,0.5832146,0.3636483,0,828.8278,784.5055,772.4176,819.9634
2022-07-05 13:58:30.772,1.010018,0.69717085,0.93260217,0.5832146,0.3636483,0,815.12823,779.2674,766.3736,807.8755
2022-07-05 13:58:30.820,1.010018,0.69717085,0.93260217,0.5832146,0.3636483,0,841.7216,813.91943,837.28937,851.79486
2022-07-05 13:58:30.821,1.010018,0.69717085,0.93260217,0.5832146,0.3636483,0,858.24176,830.84247,867.50916,872.3443
2022-07-05 13:58:30.821,1.010018,0.69717085,0.93260217,0.5832146,0.3636483,0,825.6044,804.2491,798.60803,826.8132
2022-07-05 13:58:30.821,1.010018,0.69717085,0.93260217,0.5832146,0.3636483,0,797.3993,780.87915,759.12085,796.5934
2022-07-05 13:58:30.822,1.010018,0.69717085,0.93260217,0.5832146,0.3636483,0,814.3223,809.4872,818.7546,826.4103
2022-07-05 13:58:30.822,1.0057247,0.6832445,0.93260217,0.5817937,0.33901286,0,844.1392,855.42126,872.3443,863.47986
2022-07-05 13:58:30.823,1.0057247,0.6832445,0.93260217,0.5817937,0.33901286,0,820.3663,828.022,810.696,830.84247
2022-07-05 13:58:30.823,1.0057247,0.6832445,0.93260217,0.5817937,0.33901286,0,792.96704,778.86444,754.2857,790.14655
2022-07-05 13:58:30.823,1.0057247,0.6832445,0.93260217,0.5817937,0.33901286,0,801.8315,785.31134,790.54944,804.2491
2022-07-05 13:58:30.824,1.0057247,0.6832445,0.93260217,0.5817937,0.33901286,0,826.0073,821.5751,857.03296,843.3333
2022-07-05 13:58:30.824,1.0057247,0.6832445,0.93260217,0.5817937,0.33901286,0,819.9634,815.5311,830.4396,833.663
2022-07-05 13:58:30.824,1.0057247,0.6832445,0.93260217,0.5817937,0.33901286,0,791.75824,774.43225,754.68866,786.52014
2022-07-05 13:58:30.845,1.0057247,0.6832445,0.93260217,0.5817937,0.33901286,0,790.14655,765.16486,762.3443,784.90845
2022-07-05 13:58:30.846,1.0057247,0.6832445,0.93260217,0.5817937,0.33901286,0,819.15753,817.1429,843.73627,833.2601
2022-07-05 13:58:30.846,1.0057247,0.6832445,0.93260217,0.5817937,0.33901286,0,837.6923,842.52747,852.1978,849.3773
2022-07-05 13:58:30.846,1.0057247,0.6832445,0.93260217,0.5817937,0.33901286,0,812.3077,792.96704,771.2088,805.05493
2022-07-05 13:58:30.847,1.0057247,0.6832445,0.93260217,0.5817937,0.33901286,0,772.01465,759.5238,749.0476,766.77655
2022-07-05 13:58:30.847,1.0057247,0.6832445,0.93260217,0.5817937,0.33901286,0,786.52014,800.6227,824.7985,797.8022
2022-07-05 13:58:30.847,1.0057247,0.6832445,0.93260217,0.5817937,0.33901286,0,823.1868,847.76556,866.7033,836.4835
2022-07-05 13:58:30.847,1.0057247,0.6832445,0.93260217,0.5817937,0.33901286,0,805.05493,796.5934,788.5348,807.47253
2022-07-05 13:58:30.847,1.0057247,0.6832445,0.93260217,0.5817937,0.33901286,0,783.69965,754.68866,739.7802,778.86444
2022-07-05 13:58:30.848,1.0057247,0.6832445,0.93260217,0.5817937,0.33901286,0,803.0403,790.9524,799.41394,806.6667
2022-07-05 13:58:30.848,1.0057247,0.6832445,0.93260217,0.5817937,0.33901286,0,836.08057,830.4396,861.4652,849.3773
2022-07-05 13:58:30.848,1.0057247,0.6832445,0.93260217,0.5817937,0.33901286,0,820.7692,812.3077,805.8608,826.0073
2022-07-05 13:58:30.917,1.0057247,0.6832445,0.93260217,0.5817937,0.33901286,0,792.5641,774.43225,744.61536,784.5055
2022-07-05 13:58:30.918,1.0057247,0.6832445,0.93260217,0.5817937,0.33901286,0,799.41394,767.98535,782.0879,800.6227
2022-07-05 13:58:30.918,1.0057247,0.6832445,0.93260217,0.5817937,0.33901286,0,832.0513,808.68134,859.85345,848.5714
2022-07-05 13:58:30.918,1.0057247,0.6832445,0.93260217,0.5817937,0.33901286,0,835.6777,824.7985,844.94507,842.9304
2022-07-05 13:58:30.918,1.0057247,0.6832445,0.93260217,0.5817937,0.33901286,0,807.47253,787.326,770,795.78754
2022-07-05 13:58:30.919,1.0057247,0.6832445,0.93260217,0.5817937,0.33901286,0,804.65204,792.96704,776.4469,796.99634
2022-07-05 13:58:30.919,1.0057247,0.6832445,0.93260217,0.5817937,0.33901286,0,838.49817,843.3333,858.24176,845.34796
2022-07-05 13:58:30.919,0.99958557,0.6791329,0.93260217,0.5806592,0.30440238,0,845.7509,824.7985,863.0769,855.42126
2022-07-05 13:58:30.920,0.99958557,0.6791329,0.93260217,0.5806592,0.30440238,0,810.293,769.59705,776.8498,803.8461
2022-07-05 13:58:30.920,0.99958557,0.6791329,0.93260217,0.5806592,0.30440238,0,793.36993,766.77655,757.1062,780.87915
2022-07-05 13:58:30.921,0.99958557,0.6791329,0.93260217,0.5806592,0.30440238,0,819.9634,805.8608,831.6484,826.0073
2022-07-05 13:58:30.921,0.99958557,0.6791329,0.93260217,0.5806592,0.30440238,0,842.9304,819.9634,876.3736,857.03296
2022-07-05 13:58:30.967,0.99958557,0.6791329,0.93260217,0.5806592,0.30440238,0,816.7399,789.34064,809.0842,817.1429
2022-07-05 13:58:30.967,0.99958557,0.6791329,0.93260217,0.5806592,0.30440238,0,793.36993,763.95605,760.32965,786.52014
2022-07-05 13:58:30.968,0.99958557,0.6791329,0.93260217,0.5806592,0.30440238,0,805.8608,778.46155,811.0989,809.0842
2022-07-05 13:58:30.968,0.99958557,0.6791329,0.93260217,0.5806592,0.30440238,0,838.0952,826.4103,879.59705,854.21246
2022-07-05 13:58:30.968,0.99958557,0.6791329,0.93260217,0.5806592,0.30440238,0,832.0513,816.337,840.5128,840.10986
2022-07-05 13:58:30.968,0.99958557,0.6791329,0.93260217,0.5806592,0.30440238,0,803.44324,795.38464,780.87915,788.5348
2022-07-05 13:58:30.969,0.99958557,0.6791329,0.93260217,0.5806592,0.30440238,0,798.60803,805.4579,805.05493,799.41394
2022-07-05 13:58:30.969,0.99958557,0.6791329,0.93260217,0.5806592,0.30440238,0,825.2015,811.9048,869.92676,852.1978
2022-07-05 13:58:30.969,0.99958557,0.6791329,0.93260217,0.5806592,0.30440238,0,830.4396,806.6667,858.6447,851.39197
2022-07-05 13:58:30.970,0.99958557,0.6791329,0.93260217,0.5806592,0.30440238,0,798.20514,778.0586,784.90845,802.6374
2022-07-05 13:58:30.970,0.99958557,0.6791329,0.93260217,0.5806592,0.30440238,0,786.9231,775.2381,776.4469,789.7436
2022-07-05 13:58:30.970,0.99958557,0.6791329,0.93260217,0.5806592,0.30440238,0,813.1135,812.3077,846.1539,829.6337
2022-07-05 13:58:31.017,0.99958557,0.6791329,0.93260217,0.5806592,0.30440238,0,830.84247,846.55676,877.1795,852.6007
2022-07-05 13:58:31.018,0.99958557,0.6791329,0.93260217,0.5806592,0.30440238,0,809.89014,820.3663,807.8755,806.6667
2022-07-05 13:58:31.018,0.99958557,0.6791329,0.93260217,0.5806592,0.30440238,0,794.9817,766.3736,770.80585,781.28204
2022-07-05 13:58:31.018,0.99958557,0.6791329,0.93260217,0.5806592,0.30440238,0,801.4286,777.6557,832.0513,816.337
2022-07-05 13:58:31.019,0.99958557,0.6791329,0.93260217,0.5806592,0.30440238,0,816.337,821.1722,883.22345,846.1539
2022-07-05 13:58:31.019,0.99958557,0.6791329,0.93260217,0.5806592,0.30440238,0,794.17584,812.71063,823.1868,810.696
2022-07-05 13:58:31.020,0.99958557,0.6791329,0.93260217,0.5806592,0.30440238,0,767.98535,781.28204,765.9707,770.80585
2022-07-05 13:58:31.020,0.99958557,0.6791329,0.93260217,0.5806592,0.30440238,0,781.685,772.4176,804.2491,792.1612
2022-07-05 13:58:31.020,0.99958557,0.6791329,0.93260217,0.5806592,0.30440238,0,815.5311,811.50183,872.74725,838.9011
2022-07-05 13:58:31.021,0.9899976,0.6821028,0.93260217,0.5790081,0.2593441,0,809.4872,808.2784,844.1392,827.619
2022-07-05 13:58:31.022,0.9899976,0.6821028,0.93260217,0.5790081,0.2593441,0,777.6557,765.16486,774.43225,785.31134
2022-07-05 13:58:31.022,0.9899976,0.6821028,0.93260217,0.5790081,0.2593441,0,781.685,763.5531,784.5055,793.36993
2022-07-05 13:58:31.045,0.9899976,0.6821028,0.93260217,0.5790081,0.2593441,0,815.9341,810.696,861.8681,845.7509
2022-07-05 13:58:31.046,0.9899976,0.6821028,0.93260217,0.5790081,0.2593441,0,832.0513,831.2454,865.09155,851.79486
2022-07-05 13:58:31.046,0.9899976,0.6821028,0.93260217,0.5790081,0.2593441,0,812.3077,799.011,784.10254,797.3993
2022-07-05 13:58:31.047,0.9899976,0.6821028,0.93260217,0.5790081,0.2593441,0,799.81683,788.1319,766.3736,779.2674
2022-07-05 13:58:31.047,0.9899976,0.6821028,0.93260217,0.5790081,0.2593441,0,824.3956,813.1135,838.0952,821.5751
2022-07-05 13:58:31.047,0.9899976,0.6821028,0.93260217,0.5790081,0.2593441,0,842.9304,838.49817,870.7326,847.3626
2022-07-05 13:58:31.047,0.9899976,0.6821028,0.93260217,0.5790081,0.2593441,0,813.91943,803.44324,794.17584,803.44324
2022-07-05 13:58:31.048,0.9899976,0.6821028,0.93260217,0.5790081,0.2593441,0,790.54944,755.89746,749.85345,770.40295
2022-07-05 13:58:31.048,0.9899976,0.6821028,0.93260217,0.5790081,0.2593441,0,806.26373,782.0879,805.05493,803.0403
2022-07-05 13:58:31.048,0.9899976,0.6821028,0.93260217,0.5790081,0.2593441,0,826.0073,827.619,861.8681,836.8865
2022-07-05 13:58:31.049,0.9899976,0.6821028,0.93260217,0.5790081,0.2593441,0,808.2784,802.6374,807.0696,807.0696
2022-07-05 13:58:31.049,0.9899976,0.6821028,0.93260217,0.5790081,0.2593441,0,782.8938,767.5824,747.03296,769.19415
2022-07-05 13:58:31.102,0.9899976,0.6821028,0.93260217,0.5790081,0.2593441,0,788.1319,780.07324,788.1319,787.326
2022-07-05 13:58:31.102,0.9899976,0.6821028,0.93260217,0.5790081,0.2593441,0,823.5897,815.9341,859.45056,841.7216
2022-07-05 13:58:31.102,0.9899976,0.6821028,0.93260217,0.5790081,0.2593441,0,823.9927,811.9048,836.08057,836.08057
2022-07-05 13:58:31.103,0.9899976,0.6821028,0.93260217,0.5790081,0.2593441,0,794.17584,771.6117,766.3736,788.93774
2022-07-05 13:58:31.103,0.9899976,0.6821028,0.93260217,0.5790081,0.2593441,0,790.14655,774.83514,776.4469,786.52014
2022-07-05 13:58:31.103,0.9899976,0.6821028,0.93260217,0.5790081,0.2593441,0,815.9341,826.8132,855.42126,835.2747
2022-07-05 13:58:31.104,0.9899976,0.6821028,0.93260217,0.5790081,0.2593441,0,831.6484,852.1978,866.7033,850.58606
2022-07-05 13:58:31.104,0.9899976,0.6821028,0.93260217,0.5790081,0.2593441,0,807.8755,809.89014,791.75824,804.65204
2022-07-05 13:58:31.104,0.9899976,0.6821028,0.93260217,0.5790081,0.2593441,0,793.7729,773.6264,771.6117,788.5348
2022-07-05 13:58:31.104,0.9899976,0.6821028,0.93260217,0.5790081,0.2593441,0,819.5604,794.9817,840.5128,832.0513
2022-07-05 13:58:31.105,0.9899976,0.6821028,0.93260217,0.5790081,0.2593441,0,840.5128,823.9927,878.3883,862.674
2022-07-05 13:58:31.105,0.9733719,0.6760494,0.93112653,0.57650286,0.213603,0,815.9341,791.3553,808.68134,820.7692
2022-07-05 13:58:31.136,0.9733719,0.6760494,0.93112653,0.57650286,0.213603,0,795.38464,770.80585,768.3883,786.9231
2022-07-05 13:58:31.136,0.9733719,0.6760494,0.93112653,0.57650286,0.213603,0,811.9048,805.4579,824.3956,814.3223
2022-07-05 13:58:31.137,0.9733719,0.6760494,0.93112653,0.57650286,0.213603,0,842.1245,840.10986,882.4176,853.00366
2022-07-05 13:58:31.137,0.9733719,0.6760494,0.93112653,0.57650286,0.213603,0,824.7985,807.47253,830.0366,825.2015
2022-07-05 13:58:31.137,0.9733719,0.6760494,0.93112653,0.57650286,0.213603,0,795.78754,771.6117,768.7912,787.326
2022-07-05 13:58:31.138,0.9733719,0.6760494,0.93112653,0.57650286,0.213603,0,802.23444,796.1905,798.20514,797.8022
2022-07-05 13:58:31.138,0.9733719,0.6760494,0.93112653,0.57650286,0.213603,0,829.6337,837.28937,866.7033,834.87177
2022-07-05 13:58:31.138,0.9733719,0.6760494,0.93112653,0.57650286,0.213603,0,824.3956,825.2015,847.76556,830.84247
2022-07-05 13:58:31.139,0.9733719,0.6760494,0.93112653,0.57650286,0.213603,0,794.17584,792.1612,775.64105,788.5348
2022-07-05 13:58:31.139,0.9733719,0.6760494,0.93112653,0.57650286,0.213603,0,787.72894,788.93774,774.43225,781.685
2022-07-05 13:58:31.139,0.9733719,0.6760494,0.93112653,0.57650286,0.213603,0,807.0696,802.6374,839.707,814.3223
2022-07-05 13:58:31.139,0.9733719,0.6760494,0.93112653,0.57650286,0.213603,0,816.337,810.293,854.21246,826.8132
2022-07-05 13:58:31.197,0.9733719,0.6760494,0.93112653,0.57650286,0.213603,0,788.93774,781.685,782.8938,787.72894
2022-07-05 13:58:31.198,0.9733719,0.6760494,0.93112653,0.57650286,0.213603,0,769.19415,753.8828,755.4945,765.56775
2022-07-05 13:58:31.198,0.9733719,0.6760494,0.93112653,0.57650286,0.213603,0,785.7143,778.86444,819.9634,801.4286
2022-07-05 13:58:31.198,0.9733719,0.6760494,0.93112653,0.57650286,0.213603,0,811.9048,820.3663,869.12085,838.9011
2022-07-05 13:58:31.199,0.9733719,0.6760494,0.93112653,0.57650286,0.213603,0,793.7729,794.9817,805.4579,806.26373
2022-07-05 13:58:31.199,0.9733719,0.6760494,0.93112653,0.57650286,0.213603,0,766.3736,775.64105,760.32965,767.5824
2022-07-05 13:58:31.200,0.9733719,0.6760494,0.93112653,0.57650286,0.213603,0,782.0879,815.12823,816.337,792.1612
2022-07-05 13:58:31.200,0.9733719,0.6760494,0.93112653,0.57650286,0.213603,0,813.91943,828.022,873.5531,836.8865
2022-07-05 13:58:31.200,0.9733719,0.6760494,0.93112653,0.57650286,0.213603,0,803.44324,794.9817,826.4103,815.12823
2022-07-05 13:58:31.200,0.9733719,0.6760494,0.93112653,0.57650286,0.213603,0,782.0879,769.59705,763.5531,777.6557
2022-07-05 13:58:31.201,0.9733719,0.6760494,0.93112653,0.57650286,0.213603,0,782.49084,772.4176,784.10254,788.5348
2022-07-05 13:58:31.201,0.9733719,0.6760494,0.93112653,0.57650286,0.213603,0,814.3223,811.0989,854.21246,836.08057
2022-07-05 13:58:31.230,0.9733719,0.6760494,0.93112653,0.57650286,0.213603,0,824.7985,823.5897,846.9597,834.87177
2022-07-05 13:58:31.231,0.94581544,0.64849377,0.914291,0.571069,0.1776538,0,801.4286,791.75824,776.04395,783.69965
2022-07-05 13:58:31.232,0.94581544,0.64849377,0.914291,0.571069,0.1776538,0,794.17584,783.69965,768.7912,776.4469
2022-07-05 13:58:31.233,0.94581544,0.64849377,0.914291,0.571069,0.1776538,0,818.3516,828.022,843.3333,822.7839
2022-07-05 13:58:31.233,0.94581544,0.64849377,0.914291,0.571069,0.1776538,0,834.87177,840.10986,867.9121,846.9597
2022-07-05 13:58:31.233,0.94581544,0.64849377,0.914291,0.571069,0.1776538,0,808.68134,810.696,792.5641,801.4286
2022-07-05 13:58:31.234,0.94581544,0.64849377,0.914291,0.571069,0.1776538,0,792.5641,794.57874,762.74725,778.0586
2022-07-05 13:58:31.234,0.94581544,0.64849377,0.914291,0.571069,0.1776538,0,810.293,791.75824,815.9341,814.7253
2022-07-05 13:58:31.234,0.94581544,0.64849377,0.914291,0.571069,0.1776538,0,830.4396,822.7839,863.8828,851.79486
2022-07-05 13:58:31.235,0.94581544,0.64849377,0.914291,0.571069,0.1776538,0,816.337,805.4579,809.89014,822.7839
2022-07-05 13:58:31.235,0.94581544,0.64849377,0.914291,0.571069,0.1776538,0,791.3553,761.53845,751.4652,782.8938
2022-07-05 13:58:31.235,0.94581544,0.64849377,0.914291,0.571069,0.1776538,0,793.7729,770.40295,792.1612,798.20514
2022-07-05 13:58:31.296,0.94581544,0.64849377,0.914291,0.571069,0.1776538,0,825.6044,816.337,867.50916,845.34796
2022-07-05 13:58:31.297,0.94581544,0.64849377,0.914291,0.571069,0.1776538,0,836.4835,802.6374,838.0952,852.6007
2022-07-05 13:58:31.298,0.94581544,0.64849377,0.914291,0.571069,0.1776538,0,795.38464,772.01465,770,791.3553
2022-07-05 13:58:31.298,0.94581544,0.64849377,0.914291,0.571069,0.1776538,0,760.32965,784.5055,774.0293,753.8828
2022-07-05 13:58:31.298,0.94581544,0.64849377,0.914291,0.571069,0.1776538,0,786.1172,812.71063,837.28937,793.36993
2022-07-05 13:58:31.299,0.94581544,0.64849377,0.914291,0.571069,0.1776538,0,782.49084,823.5897,836.4835,793.7729
2022-07-05 13:58:31.299,0.94581544,0.64849377,0.914291,0.571069,0.1776538,0,736.1539,795.78754,755.4945,732.9304
2022-07-05 13:58:31.299,0.94581544,0.64849377,0.914291,0.571069,0.1776538,0,716.8132,757.9121,730.10986,701.0989
2022-07-05 13:58:31.300,0.94581544,0.64849377,0.914291,0.571069,0.1776538,0,731.31866,775.64105,796.1905,729.707
2022-07-05 13:58:31.300,0.94581544,0.64849377,0.914291,0.571069,0.1776538,0,738.97437,811.9048,834.87177,747.03296
2022-07-05 13:58:31.300,0.94581544,0.64849377,0.914291,0.571069,0.1776538,0,693.8461,791.75824,765.9707,692.23444
2022-07-05 13:58:31.301,0.94581544,0.64849377,0.914291,0.571069,0.1776538,0,657.5824,759.12085,720.0366,650.7326
2022-07-05 13:58:31.329,0.94581544,0.64849377,0.914291,0.571069,0.1776538,0,672.49084,779.2674,773.6264,680.14655
2022-07-05 13:58:31.330,0.94581544,0.64849377,0.914291,0.571069,0.1776538,0,693.0403,816.7399,833.2601,716.0073
2022-07-05 13:58:31.331,0.94581544,0.64849377,0.914291,0.571069,0.1776538,0,681.3553,794.9817,779.67035,683.7729
2022-07-05 13:58:31.331,0.9069576,0.6032617,0.78278685,0.5599853,0.15071577,0,664.0293,763.5531,728.0952,651.53845
2022-07-05 13:58:31.332,0.9069576,0.6032617,0.78278685,0.5599853,0.15071577,0,670.87915,775.64105,763.1502,674.5055
2022-07-05 13:58:31.333,0.9069576,0.6032617,0.78278685,0.5599853,0.15071577,0,697.47253,822.381,832.4542,721.2454
2022-07-05 13:58:31.333,0.9069576,0.6032617,0.78278685,0.5599853,0.15071577,0,693.0403,826.8132,815.5311,703.91943
2022-07-05 13:58:31.334,0.9069576,0.6032617,0.78278685,0.5599853,0.15071577,0,679.7436,776.4469,743.4066,660
2022-07-05 13:58:31.334,0.9069576,0.6032617,0.78278685,0.5599853,0.15071577,0,680.54944,747.4359,740.58606,666.8498
2022-07-05 13:58:31.334,0.9069576,0.6032617,0.78278685,0.5599853,0.15071577,0,711.978,783.69965,815.12823,725.2747
2022-07-05 13:58:31.335,0.9069576,0.6032617,0.78278685,0.5599853,0.15071577,0,739.7802,814.7253,829.6337,752.27106
2022-07-05 13:58:31.335,0.9069576,0.6032617,0.78278685,0.5599853,0.15071577,0,720.4396,779.67035,751.4652,707.5458
2022-07-05 13:58:31.396,0.9069576,0.6032617,0.78278685,0.5599853,0.15071577,0,712.381,759.12085,737.3626,691.4286
2022-07-05 13:58:31.397,0.9069576,0.6032617,0.78278685,0.5599853,0.15071577,0,742.6007,799.011,805.8608,736.55676
2022-07-05 13:58:31.397,0.9069576,0.6032617,0.78278685,0.5599853,0.15071577,0,772.4176,828.8278,839.707,770.80585
2022-07-05 13:58:31.398,0.9069576,0.6032617,0.78278685,0.5599853,0.15071577,0,749.85345,795.78754,776.8498,737.76556
2022-07-05 13:58:31.398,0.9069576,0.6032617,0.78278685,0.5599853,0.15071577,0,730.10986,769.59705,732.52747,710.7692
2022-07-05 13:58:31.398,0.9069576,0.6032617,0.78278685,0.5599853,0.15071577,0,753.47986,796.1905,786.52014,745.0183
2022-07-05 13:58:31.399,0.9069576,0.6032617,0.78278685,0.5599853,0.15071577,0,786.52014,842.1245,851.79486,795.38464
2022-07-05 13:58:31.399,0.9069576,0.6032617,0.78278685,0.5599853,0.15071577,0,776.04395,817.9487,805.4579,780.87915
2022-07-05 13:58:31.400,0.9069576,0.6032617,0.78278685,0.5599853,0.15071577,0,748.24176,773.22345,743.00366,734.94507
2022-07-05 13:58:31.400,0.9069576,0.6032617,0.78278685,0.5599853,0.15071577,0,755.4945,785.31134,774.0293,747.8388
2022-07-05 13:58:31.400,0.9069576,0.6032617,0.78278685,0.5599853,0.15071577,0,788.93774,813.1135,843.73627,801.8315
2022-07-05 13:58:31.401,0.9069576,0.6032617,0.78278685,0.5599853,0.15071577,0,798.60803,810.293,824.3956,797.3993
2022-07-05 13:58:31.430,0.9069576,0.6032617,0.78278685,0.5599853,0.15071577,0,776.04395,789.34064,754.68866,747.4359
2022-07-05 13:58:31.430,0.9069576,0.6032617,0.78278685,0.5599853,0.15071577,0,760.7326,778.0586,751.8681,736.55676
2022-07-05 13:58:31.431,0.9069576,0.6032617,0.78278685,0.5599853,0.15071577,0,784.10254,809.0842,825.6044,783.2967
2022-07-05 13:58:31.431,0.9069576,0.6032617,0.78278685,0.5599853,0.15071577,0,808.2784,822.381,844.94507,814.3223
2022-07-05 13:58:31.431,0.9069576,0.6032617,0.78278685,0.5599853,0.15071577,0,790.54944,789.7436,774.0293,780.87915
2022-07-05 13:58:31.432,0.8611862,0.55886465,0.5800311,0.54099345,0.12586147,0,770.80585,803.8461,754.2857,760.32965
2022-07-05 13:58:31.433,0.8611862,0.55886465,0.5800311,0.54099345,0.12586147,0,792.1612,802.23444,807.0696,799.011
2022-07-05 13:58:31.433,0.8611862,0.55886465,0.5800311,0.54099345,0.12586147,0,823.1868,776.8498,838.0952,830.0366
2022-07-05 13:58:31.434,0.8611862,0.55886465,0.5800311,0.54099345,0.12586147,0,809.0842,752.27106,784.5055,794.17584
2022-07-05 13:58:31.434,0.8611862,0.55886465,0.5800311,0.54099345,0.12586147,0,782.49084,748.24176,749.0476,758.71796
2022-07-05 13:58:31.434,0.8611862,0.55886465,0.5800311,0.54099345,0.12586147,0,783.2967,819.5604,802.6374,778.46155
2022-07-05 13:58:31.435,0.8611862,0.55886465,0.5800311,0.54099345,0.12586147,0,818.7546,881.6117,868.315,825.6044
2022-07-05 13:58:31.497,0.8611862,0.55886465,0.5800311,0.54099345,0.12586147,0,811.9048,856.2271,830.0366,811.50183
2022-07-05 13:58:31.498,0.8611862,0.55886465,0.5800311,0.54099345,0.12586147,0,774.0293,803.8461,762.74725,762.74725
2022-07-05 13:58:31.498,0.8611862,0.55886465,0.5800311,0.54099345,0.12586147,0,780.4762,799.011,776.8498,769.59705
2022-07-05 13:58:31.499,0.8611862,0.55886465,0.5800311,0.54099345,0.12586147,0,811.50183,824.7985,842.52747,818.7546
2022-07-05 13:58:31.499,0.8611862,0.55886465,0.5800311,0.54099345,0.12586147,0,811.0989,824.3956,838.0952,821.1722
2022-07-05 13:58:31.499,0.8611862,0.55886465,0.5800311,0.54099345,0.12586147,0,787.326,796.99634,768.7912,775.64105
2022-07-05 13:58:31.500,0.8611862,0.55886465,0.5800311,0.54099345,0.12586147,0,779.2674,790.14655,757.1062,763.95605
2022-07-05 13:58:31.500,0.8611862,0.55886465,0.5800311,0.54099345,0.12586147,0,802.23444,811.0989,825.2015,808.2784
2022-07-05 13:58:31.500,0.8611862,0.55886465,0.5800311,0.54099345,0.12586147,0,830.4396,833.2601,859.0476,841.31866
2022-07-05 13:58:31.500,0.8611862,0.55886465,0.5800311,0.54099345,0.12586147,0,811.0989,799.011,790.54944,800.6227
2022-07-05 13:58:31.501,0.8611862,0.55886465,0.5800311,0.54099345,0.12586147,0,786.52014,771.2088,750.65936,770
2022-07-05 13:58:31.501,0.8611862,0.55886465,0.5800311,0.54099345,0.12586147,0,804.2491,792.5641,807.8755,806.6667
2022-07-05 13:58:31.527,0.8611862,0.55886465,0.5800311,0.54099345,0.12586147,0,828.8278,821.1722,855.42126,844.94507
2022-07-05 13:58:31.528,0.8611862,0.55886465,0.5800311,0.54099345,0.12586147,0,805.4579,791.3553,801.02563,815.9341
2022-07-05 13:58:31.528,0.8611862,0.55886465,0.5800311,0.54099345,0.12586147,0,785.7143,780.87915,758.71796,784.5055
2022-07-05 13:58:31.528,0.8611862,0.55886465,0.5800311,0.54099345,0.12586147,0,793.7729,808.2784,794.57874,806.26373
2022-07-05 13:58:31.529,0.8611862,0.55886465,0.5800311,0.54099345,0.12586147,0,813.91943,816.337,855.42126,845.7509
2022-07-05 13:58:31.529,0.8611862,0.55886465,0.5800311,0.54099345,0.12586147,0,809.4872,818.3516,831.2454,835.6777
2022-07-05 13:58:31.529,0.8611862,0.55886465,0.5800311,0.54099345,0.12586147,0,788.1319,799.011,770,796.5934
2022-07-05 13:58:31.530,0.8294584,0.5390722,0.4889859,0.5165799,0.098235756,0,790.54944,780.4762,783.2967,807.0696
2022-07-05 13:58:31.531,0.8294584,0.5390722,0.4889859,0.5165799,0.098235756,0,818.3516,806.26373,850.58606,856.2271
2022-07-05 13:58:31.531,0.8294584,0.5390722,0.4889859,0.5165799,0.098235756,0,833.2601,819.9634,857.8388,860.2564
2022-07-05 13:58:31.532,0.8294584,0.5390722,0.4889859,0.5165799,0.098235756,0,810.293,784.5055,785.31134,809.89014
2022-07-05 13:58:31.532,0.8294584,0.5390722,0.4889859,0.5165799,0.098235756,0,799.41394,778.46155,763.5531,796.5934
2022-07-05 13:58:31.589,0.8294584,0.5390722,0.4889859,0.5165799,0.098235756,0,825.2015,811.9048,834.4689,837.28937
2022-07-05 13:58:31.590,0.8294584,0.5390722,0.4889859,0.5165799,0.098235756,0,840.10986,823.1868,869.5238,858.6447
2022-07-05 13:58:31.590,0.8294584,0.5390722,0.4889859,0.5165799,0.098235756,0,815.5311,787.72894,792.1612,811.0989
2022-07-05 13:58:31.591,0.8294584,0.5390722,0.4889859,0.5165799,0.098235756,0,806.26373,772.4176,757.9121,783.2967
2022-07-05 13:58:31.591,0.8294584,0.5390722,0.4889859,0.5165799,0.098235756,0,817.9487,796.99634,817.1429,817.5458
2022-07-05 13:58:31.591,0.8294584,0.5390722,0.4889859,0.5165799,0.098235756,0,842.52747,840.10986,874.35895,857.03296
2022-07-05 13:58:31.592,0.8294584,0.5390722,0.4889859,0.5165799,0.098235756,0,838.49817,850.58606,834.0659,833.2601
2022-07-05 13:58:31.592,0.8294584,0.5390722,0.4889859,0.5165799,0.098235756,0,817.5458,809.0842,774.0293,796.5934
2022-07-05 13:58:31.592,0.8294584,0.5390722,0.4889859,0.5165799,0.098235756,0,821.5751,787.72894,799.81683,806.26373
2022-07-05 13:58:31.593,0.8294584,0.5390722,0.4889859,0.5165799,0.098235756,0,843.3333,824.3956,865.09155,846.9597
2022-07-05 13:58:31.593,0.8294584,0.5390722,0.4889859,0.5165799,0.098235756,0,855.82416,826.4103,842.52747,852.6007
2022-07-05 13:58:31.593,0.8294584,0.5390722,0.4889859,0.5165799,0.098235756,0,846.1539,803.0403,784.90845,819.5604
2022-07-05 13:58:31.621,0.8294584,0.5390722,0.4889859,0.5165799,0.098235756,0,821.978,787.326,788.1319,799.41394
2022-07-05 13:58:31.622,0.8294584,0.5390722,0.4889859,0.5165799,0.098235756,0,830.0366,803.8461,854.21246,831.6484
2022-07-05 13:58:31.622,0.8294584,0.5390722,0.4889859,0.5165799,0.098235756,0,853.8095,826.8132,871.13556,865.09155
2022-07-05 13:58:31.622,0.8294584,0.5390722,0.4889859,0.5165799,0.098235756,0,836.08057,806.6667,803.44324,828.8278
2022-07-05 13:58:31.623,0.8294584,0.5390722,0.4889859,0.5165799,0.098235756,0,820.3663,785.7143,781.28204,803.44324
2022-07-05 13:58:31.623,0.8294584,0.5390722,0.4889859,0.5165799,0.098235756,0,850.58606,820.3663,847.76556,855.0183
2022-07-05 13:58:31.623,0.8294584,0.5390722,0.4889859,0.5165799,0.098235756,0,886.8498,857.8388,889.2674,895.7143
2022-07-05 13:58:31.624,0.8294584,0.5390722,0.4889859,0.5165799,0.098235756,0,861.06226,800.2198,817.9487,850.58606
2022-07-05 13:58:31.624,0.8294584,0.5390722,0.4889859,0.5165799,0.098235756,0,838.0952,776.04395,776.4469,825.6044
2022-07-05 13:58:31.624,0.83465326,0.54940754,0.6091932,0.49198097,0.06981781,0,857.03296,799.81683,823.5897,854.21246
2022-07-05 13:58:31.626,0.83465326,0.54940754,0.6091932,0.49198097,0.06981781,0,884.0293,823.9927,888.0586,896.1172
2022-07-05 13:58:31.626,0.83465326,0.54940754,0.6091932,0.49198097,0.06981781,0,857.8388,808.2784,851.79486,872.74725
2022-07-05 13:58:31.688,0.83465326,0.54940754,0.6091932,0.49198097,0.06981781,0,827.2161,771.6117,791.3553,829.6337
2022-07-05 13:58:31.689,0.83465326,0.54940754,0.6091932,0.49198097,0.06981781,0,852.1978,781.28204,817.1429,855.0183
2022-07-05 13:58:31.689,0.83465326,0.54940754,0.6091932,0.49198097,0.06981781,0,890.4762,819.15753,881.6117,905.78754
2022-07-05 13:58:31.690,0.83465326,0.54940754,0.6091932,0.49198097,0.06981781,0,888.0586,827.619,869.12085,896.52014
2022-07-05 13:58:31.690,0.83465326,0.54940754,0.6091932,0.49198097,0.06981781,0,865.09155,795.38464,800.2198,844.5421
2022-07-05 13:58:31.690,0.83465326,0.54940754,0.6091932,0.49198097,0.06981781,0,862.674,805.05493,802.23444,845.34796
2022-07-05 13:58:31.691,0.83465326,0.54940754,0.6091932,0.49198097,0.06981781,0,885.2381,832.8571,872.3443,899.7436
2022-07-05 13:58:31.691,0.83465326,0.54940754,0.6091932,0.49198097,0.06981781,0,897.326,826.4103,889.2674,916.26373
2022-07-05 13:58:31.691,0.83465326,0.54940754,0.6091932,0.49198097,0.06981781,0,868.315,799.81683,816.7399,863.8828
2022-07-05 13:58:31.692,0.83465326,0.54940754,0.6091932,0.49198097,0.06981781,0,851.79486,781.685,786.9231,844.94507
2022-07-05 13:58:31.692,0.83465326,0.54940754,0.6091932,0.49198097,0.06981781,0,879.59705,801.8315,845.7509,888.46155
2022-07-05 13:58:31.692,0.83465326,0.54940754,0.6091932,0.49198097,0.06981781,0,907.8022,844.94507,895.7143,924.7253
2022-07-05 13:58:31.722,0.83465326,0.54940754,0.6091932,0.49198097,0.06981781,0,888.0586,817.1429,841.31866,888.0586
2022-07-05 13:58:31.722,0.83465326,0.54940754,0.6091932,0.49198097,0.06981781,0,856.63007,779.2674,794.17584,847.76556
2022-07-05 13:58:31.722,0.83465326,0.54940754,0.6091932,0.49198097,0.06981781,0,862.27106,797.8022,834.87177,873.1502
2022-07-05 13:58:31.723,0.83465326,0.54940754,0.6091932,0.49198097,0.06981781,0,888.86444,826.0073,895.7143,915.4579
2022-07-05 13:58:31.723,0.83465326,0.54940754,0.6091932,0.49198097,0.06981781,0,871.9414,808.2784,863.8828,900.54944
2022-07-05 13:58:31.723,0.83465326,0.54940754,0.6091932,0.49198097,0.06981781,0,840.5128,791.3553,794.9817,852.1978
2022-07-05 13:58:31.724,0.83465326,0.54940754,0.6091932,0.49198097,0.06981781,0,834.4689,804.65204,801.02563,846.9597
2022-07-05 13:58:31.724,0.83465326,0.54940754,0.6091932,0.49198097,0.06981781,0,857.03296,820.3663,864.68866,895.7143
2022-07-05 13:58:31.724,0.83465326,0.54940754,0.6091932,0.49198097,0.06981781,0,862.27106,815.9341,859.45056,899.7436
2022-07-05 13:58:31.725,0.83465326,0.54940754,0.6091932,0.49198097,0.06981781,0,838.9011,786.9231,788.5348,847.76556
2022-07-05 13:58:31.725,0.83465326,0.54940754,0.6091932,0.49198097,0.06981781,0,826.0073,785.31134,781.28204,831.6484
2022-07-05 13:58:31.725,0.9001905,0.57798976,0.6391431,0.4733737,0.046956085,0,850.58606,819.5604,852.6007,870.7326
2022-07-05 13:58:31.754,0.9001905,0.57798976,0.6391431,0.4733737,0.046956085,0,871.13556,831.2454,878.3883,890.87915
2022-07-05 13:58:31.755,0.9001905,0.57798976,0.6391431,0.4733737,0.046956085,0,845.34796,792.96704,799.81683,843.73627
2022-07-05 13:58:31.755,0.9001905,0.57798976,0.6391431,0.4733737,0.046956085,0,832.0513,785.7143,765.56775,820.7692
2022-07-05 13:58:31.756,0.9001905,0.57798976,0.6391431,0.4733737,0.046956085,0,846.55676,803.44324,817.9487,852.6007
2022-07-05 13:58:31.756,0.9001905,0.57798976,0.6391431,0.4733737,0.046956085,0,865.89746,819.5604,861.4652,882.01465
2022-07-05 13:58:31.756,0.9001905,0.57798976,0.6391431,0.4733737,0.046956085,0,854.21246,825.2015,817.9487,852.1978
2022-07-05 13:58:31.757,0.9001905,0.57798976,0.6391431,0.4733737,0.046956085,0,826.0073,805.4579,766.77655,808.68134
2022-07-05 13:58:31.757,0.9001905,0.57798976,0.6391431,0.4733737,0.046956085,0,824.7985,791.75824,793.36993,815.9341
2022-07-05 13:58:31.757,0.9001905,0.57798976,0.6391431,0.4733737,0.046956085,0,849.7802,821.1722,859.45056,860.2564
2022-07-05 13:58:31.758,0.9001905,0.57798976,0.6391431,0.4733737,0.046956085,0,843.73627,826.0073,838.0952,854.21246
2022-07-05 13:58:31.758,0.9001905,0.57798976,0.6391431,0.4733737,0.046956085,0,816.337,803.44324,770.80585,804.2491
2022-07-05 13:58:31.758,0.9001905,0.57798976,0.6391431,0.4733737,0.046956085,0,806.6667,798.60803,775.2381,794.57874
2022-07-05 13:58:31.822,0.9001905,0.57798976,0.6391431,0.4733737,0.046956085,0,823.1868,815.9341,838.9011,833.2601
2022-07-05 13:58:31.822,0.9001905,0.57798976,0.6391431,0.4733737,0.046956085,0,831.6484,821.1722,846.1539,850.58606
2022-07-05 13:58:31.823,0.9001905,0.57798976,0.6391431,0.4733737,0.046956085,0,802.6374,786.52014,774.43225,805.05493
2022-07-05 13:58:31.823,0.9001905,0.57798976,0.6391431,0.4733737,0.046956085,0,784.10254,761.53845,748.24176,778.46155
2022-07-05 13:58:31.824,0.9001905,0.57798976,0.6391431,0.4733737,0.046956085,0,804.65204,786.52014,813.1135,820.7692
2022-07-05 13:58:31.824,0.9001905,0.57798976,0.6391431,0.4733737,0.046956085,0,825.6044,827.2161,851.79486,853.4066
2022-07-05 13:58:31.824,0.9001905,0.57798976,0.6391431,0.4733737,0.046956085,0,801.4286,811.0989,785.31134,814.3223
2022-07-05 13:58:31.824,0.9001905,0.57798976,0.6391431,0.4733737,0.046956085,0,786.52014,780.87915,747.8388,784.10254
2022-07-05 13:58:31.825,0.9001905,0.57798976,0.6391431,0.4733737,0.046956085,0,798.20514,782.8938,796.99634,806.26373
2022-07-05 13:58:31.825,0.9001905,0.57798976,0.6391431,0.4733737,0.046956085,0,816.337,804.65204,845.34796,841.31866
2022-07-05 13:58:31.825,0.9001905,0.57798976,0.6391431,0.4733737,0.046956085,0,809.0842,789.7436,798.60803,820.3663
2022-07-05 13:58:31.826,0.9001905,0.57798976,0.6391431,0.4733737,0.046956085,0,791.3553,772.4176,746.63007,781.685
2022-07-05 13:58:31.854,0.9001905,0.57798976,0.6391431,0.4733737,0.046956085,0,785.7143,790.9524,778.46155,797.3993
2022-07-05 13:58:31.855,1.0044309,0.6103321,0.6391431,0.4641476,0.035160452,0,806.6667,820.3663,847.76556,847.3626
2022-07-05 13:58:31.857,1.0044309,0.6103321,0.6391431,0.4641476,0.035160452,0,814.3223,811.0989,830.0366,841.31866
2022-07-05 13:58:31.857,1.0044309,0.6103321,0.6391431,0.4641476,0.035160452,0,792.5641,776.04395,759.92676,791.75824
2022-07-05 13:58:31.857,1.0044309,0.6103321,0.6391431,0.4641476,0.035160452,0,790.14655,773.6264,762.3443,786.1172
2022-07-05 13:58:31.858,1.0044309,0.6103321,0.6391431,0.4641476,0.035160452,0,813.91943,817.1429,837.28937,832.0513
2022-07-05 13:58:31.858,1.0044309,0.6103321,0.6391431,0.4641476,0.035160452,0,826.4103,842.9304,858.6447,852.1978
2022-07-05 13:58:31.858,1.0044309,0.6103321,0.6391431,0.4641476,0.035160452,0,803.0403,777.6557,776.8498,808.68134
2022-07-05 13:58:31.859,1.0044309,0.6103321,0.6391431,0.4641476,0.035160452,0,786.52014,711.1722,735.34796,782.0879
2022-07-05 13:58:31.859,1.0044309,0.6103321,0.6391431,0.4641476,0.035160452,0,810.696,735.34796,796.99634,818.7546
2022-07-05 13:58:31.859,1.0044309,0.6103321,0.6391431,0.4641476,0.035160452,0,842.52747,802.23444,855.42126,863.0769
2022-07-05 13:58:31.860,1.0044309,0.6103321,0.6391431,0.4641476,0.035160452,0,842.9304,837.6923,807.8755,842.52747
2022-07-05 13:58:31.922,1.0044309,0.6103321,0.6391431,0.4641476,0.035160452,0,818.3516,829.6337,764.35895,795.78754
2022-07-05 13:58:31.922,1.0044309,0.6103321,0.6391431,0.4641476,0.035160452,0,801.02563,826.4103,811.9048,799.41394
2022-07-05 13:58:31.923,1.0044309,0.6103321,0.6391431,0.4641476,0.035160452,0,835.2747,849.7802,877.1795,855.82416
2022-07-05 13:58:31.923,1.0044309,0.6103321,0.6391431,0.4641476,0.035160452,0,845.7509,839.304,833.2601,850.18317
2022-07-05 13:58:31.923,1.0044309,0.6103321,0.6391431,0.4641476,0.035160452,0,819.9634,794.57874,763.95605,803.0403
2022-07-05 13:58:31.924,1.0044309,0.6103321,0.6391431,0.4641476,0.035160452,0,816.337,799.81683,784.90845,804.65204
2022-07-05 13:58:31.924,1.0044309,0.6103321,0.6391431,0.4641476,0.035160452,0,838.9011,847.3626,854.61536,848.97437
2022-07-05 13:58:31.924,1.0044309,0.6103321,0.6391431,0.4641476,0.035160452,0,843.73627,832.4542,844.1392,850.989
2022-07-05 13:58:31.924,1.0044309,0.6103321,0.6391431,0.4641476,0.035160452,0,815.9341,787.326,763.95605,802.6374
2022-07-05 13:58:31.925,1.0044309,0.6103321,0.6391431,0.4641476,0.035160452,0,797.3993,779.67035,753.0769,788.1319
2022-07-05 13:58:31.925,1.0044309,0.6103321,0.6391431,0.4641476,0.035160452,0,817.5458,807.47253,825.6044,827.2161
2022-07-05 13:58:31.925,1.0044309,0.6103321,0.6391431,0.4641476,0.035160452,0,831.6484,828.022,851.79486,846.1539
2022-07-05 13:58:31.955,1.0044309,0.6103321,0.6391431,0.4641476,0.035160452,0,806.26373,789.34064,774.83514,802.6374
2022-07-05 13:58:31.956,1.0044309,0.6103321,0.6391431,0.4641476,0.035160452,0,790.14655,773.22345,743.00366,780.07324
2022-07-05 13:58:31.956,1.0044309,0.6103321,0.6391431,0.4641476,0.035160452,0,808.68134,799.81683,804.2491,814.3223
2022-07-05 13:58:31.957,1.1080843,0.6379507,0.6391431,0.46409684,0.03319081,0,836.8865,828.8278,853.4066,850.989
2022-07-05 13:58:31.958,1.1080843,0.6379507,0.6391431,0.46409684,0.03319081,0,819.5604,807.8755,792.5641,822.7839
2022-07-05 13:58:31.958,1.1080843,0.6379507,0.6391431,0.46409684,0.03319081,0,792.1612,788.93774,739.7802,783.69965
2022-07-05 13:58:31.958,1.1080843,0.6379507,0.6391431,0.46409684,0.03319081,0,801.4286,817.1429,784.5055,799.011
2022-07-05 13:58:31.959,1.1080843,0.6379507,0.6391431,0.46409684,0.03319081,0,831.6484,836.4835,853.4066,843.3333
2022-07-05 13:58:31.959,1.1080843,0.6379507,0.6391431,0.46409684,0.03319081,0,825.2015,817.5458,821.978,829.2308
2022-07-05 13:58:31.959,1.1080843,0.6379507,0.6391431,0.46409684,0.03319081,0,796.99634,786.52014,751.8681,780.07324
2022-07-05 13:58:31.959,1.1080843,0.6379507,0.6391431,0.46409684,0.03319081,0,796.99634,774.43225,763.1502,777.25275
2022-07-05 13:58:31.960,1.1080843,0.6379507,0.6391431,0.46409684,0.03319081,0,823.1868,804.2491,832.8571,821.5751
2022-07-05 13:58:31.987,1.1080843,0.6379507,0.6391431,0.46409684,0.03319081,0,828.4249,815.5311,830.4396,832.8571
2022-07-05 13:58:31.987,1.1080843,0.6379507,0.6391431,0.46409684,0.03319081,0,800.2198,791.3553,760.32965,787.326
2022-07-05 13:58:31.988,1.1080843,0.6379507,0.6391431,0.46409684,0.03319081,0,794.9817,791.3553,751.8681,775.64105
2022-07-05 13:58:31.988,1.1080843,0.6379507,0.6391431,0.46409684,0.03319081,0,816.7399,814.7253,819.9634,819.5604
2022-07-05 13:58:31.989,1.1080843,0.6379507,0.6391431,0.46409684,0.03319081,0,823.9927,832.0513,859.0476,846.9597
2022-07-05 13:58:31.989,1.1080843,0.6379507,0.6391431,0.46409684,0.03319081,0,803.8461,816.337,794.17584,808.68134
2022-07-05 13:58:31.989,1.1080843,0.6379507,0.6391431,0.46409684,0.03319081,0,790.9524,798.60803,754.68866,782.49084
2022-07-05 13:58:31.990,1.1080843,0.6379507,0.6391431,0.46409684,0.03319081,0,800.6227,796.99634,808.2784,815.5311
2022-07-05 13:58:31.990,1.1080843,0.6379507,0.6391431,0.46409684,0.03319081,0,832.0513,826.0073,871.53845,861.4652
2022-07-05 13:58:31.991,1.1080843,0.6379507,0.6391431,0.46409684,0.03319081,0,828.4249,811.9048,818.7546,838.0952
2022-07-05 13:58:31.991,1.1080843,0.6379507,0.6391431,0.46409684,0.03319081,0,801.8315,783.2967,753.47986,796.99634
2022-07-05 13:58:31.991,1.1080843,0.6379507,0.6391431,0.46409684,0.03319081,0,802.6374,792.96704,790.9524,811.9048
2022-07-05 13:58:32.055,1.1080843,0.6379507,0.6391431,0.46409684,0.03319081,0,826.8132,825.6044,858.24176,853.8095
2022-07-05 13:58:32.056,1.1080843,0.6379507,0.6391431,0.46409684,0.03319081,0,827.2161,817.1429,833.2601,851.79486
2022-07-05 13:58:32.056,1.1080843,0.6379507,0.6391431,0.46409684,0.03319081,0,805.8608,783.69965,766.3736,807.47253
2022-07-05 13:58:32.056,1.1080843,0.6379507,0.6391431,0.46409684,0.03319081,0,792.96704,782.49084,767.1795,796.5934
2022-07-05 13:58:32.057,1.1080843,0.6379507,0.6391431,0.46409684,0.03319081,0,812.71063,818.3516,838.9011,841.7216
2022-07-05 13:58:32.057,1.1237655,0.6521328,0.6376928,0.479578,0.034089223,0,821.1722,843.73627,852.6007,850.989
2022-07-05 13:58:32.058,1.1237655,0.6521328,0.6376928,0.479578,0.034089223,0,790.9524,817.9487,778.0586,799.41394
2022-07-05 13:58:32.059,1.1237655,0.6521328,0.6376928,0.479578,0.034089223,0,779.2674,788.5348,755.09155,778.46155
2022-07-05 13:58:32.059,1.1237655,0.6521328,0.6376928,0.479578,0.034089223,0,794.9817,789.34064,815.12823,811.9048
2022-07-05 13:58:32.059,1.1237655,0.6521328,0.6376928,0.479578,0.034089223,0,809.89014,810.293,855.0183,841.7216
2022-07-05 13:58:32.060,1.1237655,0.6521328,0.6376928,0.479578,0.034089223,0,792.96704,790.9524,790.9524,806.6667
2022-07-05 13:58:32.060,1.1237655,0.6521328,0.6376928,0.479578,0.034089223,0,782.8938,766.77655,744.61536,774.43225
2022-07-05 13:58:32.088,1.1237655,0.6521328,0.6376928,0.479578,0.034089223,0,793.36993,780.07324,793.7729,796.99634
2022-07-05 13:58:32.089,1.1237655,0.6521328,0.6376928,0.479578,0.034089223,0,817.9487,815.5311,855.0183,836.8865
2022-07-05 13:58:32.089,1.1237655,0.6521328,0.6376928,0.479578,0.034089223,0,811.9048,803.0403,812.3077,819.15753
2022-07-05 13:58:32.090,1.1237655,0.6521328,0.6376928,0.479578,0.034089223,0,786.52014,779.67035,752.27106,775.2381
2022-07-05 13:58:32.090,1.1237655,0.6521328,0.6376928,0.479578,0.034089223,0,793.7729,799.81683,782.8938,789.7436
2022-07-05 13:58:32.090,1.1237655,0.6521328,0.6376928,0.479578,0.034089223,0,820.3663,855.0183,860.65936,836.8865
2022-07-05 13:58:32.091,1.1237655,0.6521328,0.6376928,0.479578,0.034089223,0,822.381,868.71796,849.7802,832.0513
2022-07-05 13:58:32.091,1.1237655,0.6521328,0.6376928,0.479578,0.034089223,0,803.0403,811.50183,769.59705,789.34064
2022-07-05 13:58:32.091,1.1237655,0.6521328,0.6376928,0.479578,0.034089223,0,800.2198,789.34064,761.9414,782.0879
2022-07-05 13:58:32.091,1.1237655,0.6521328,0.6376928,0.479578,0.034089223,0,819.9634,815.5311,837.28937,822.7839
2022-07-05 13:58:32.092,1.1237655,0.6521328,0.6376928,0.479578,0.034089223,0,827.619,831.2454,860.2564,839.304
2022-07-05 13:58:32.092,1.1237655,0.6521328,0.6376928,0.479578,0.034089223,0,804.2491,794.9817,784.5055,795.38464
2022-07-05 13:58:32.155,1.1237655,0.6521328,0.6376928,0.479578,0.034089223,0,795.38464,777.6557,754.2857,772.01465
2022-07-05 13:58:32.156,1.1237655,0.6521328,0.6376928,0.479578,0.034089223,0,812.3077,797.8022,815.9341,811.9048
2022-07-05 13:58:32.156,1.1237655,0.6521328,0.6376928,0.479578,0.034089223,0,829.2308,824.7985,863.8828,851.79486
2022-07-05 13:58:32.157,1.1237655,0.6521328,0.6376928,0.479578,0.034089223,0,807.8755,803.0403,802.6374,813.91943
2022-07-05 13:58:32.157,1.1237655,0.6521328,0.6376928,0.479578,0.034089223,0,786.9231,767.1795,753.0769,775.64105
2022-07-05 13:58:32.157,1.1237655,0.6521328,0.6376928,0.479578,0.034089223,0,796.5934,797.3993,797.8022,800.2198
2022-07-05 13:58:32.157,1.1237655,0.6521328,0.6376928,0.479578,0.034089223,0,815.12823,838.49817,859.85345,840.9158
2022-07-05 13:58:32.158,1.1449375,0.67233163,0.6251171,0.50046504,0.041992582,0,803.8461,807.0696,819.9634,823.1868
2022-07-05 13:58:32.159,1.1449375,0.67233163,0.6251171,0.50046504,0.041992582,0,781.685,774.83514,760.7326,781.685
2022-07-05 13:58:32.160,1.1449375,0.67233163,0.6251171,0.50046504,0.041992582,0,781.28204,782.49084,779.67035,789.7436
2022-07-05 13:58:32.160,1.1449375,0.67233163,0.6251171,0.50046504,0.041992582,0,810.696,828.8278,853.8095,837.6923
2022-07-05 13:58:32.160,1.1449375,0.67233163,0.6251171,0.50046504,0.041992582,0,820.3663,840.9158,855.42126,843.73627
2022-07-05 13:58:32.188,1.1449375,0.67233163,0.6251171,0.50046504,0.041992582,0,792.1612,803.0403,774.43225,792.5641
2022-07-05 13:58:32.189,1.1449375,0.67233163,0.6251171,0.50046504,0.041992582,0,785.7143,794.17584,758.71796,782.49084
2022-07-05 13:58:32.189,1.1449375,0.67233163,0.6251171,0.50046504,0.041992582,0,819.5604,817.1429,833.663,836.8865
2022-07-05 13:58:32.190,1.1449375,0.67233163,0.6251171,0.50046504,0.041992582,0,846.1539,836.4835,863.47986,863.0769
2022-07-05 13:58:32.190,1.1449375,0.67233163,0.6251171,0.50046504,0.041992582,0,819.9634,794.57874,783.69965,816.7399
2022-07-05 13:58:32.190,1.1449375,0.67233163,0.6251171,0.50046504,0.041992582,0,803.44324,785.7143,751.06226,787.326
2022-07-05 13:58:32.191,1.1449375,0.67233163,0.6251171,0.50046504,0.041992582,0,821.5751,813.1135,815.12823,818.3516
2022-07-05 13:58:32.191,1.1449375,0.67233163,0.6251171,0.50046504,0.041992582,0,840.9158,821.5751,865.09155,848.5714
2022-07-05 13:58:32.191,1.1449375,0.67233163,0.6251171,0.50046504,0.041992582,0,821.978,797.8022,805.05493,814.3223
2022-07-05 13:58:32.192,1.1449375,0.67233163,0.6251171,0.50046504,0.041992582,0,798.60803,773.22345,746.63007,777.6557
2022-07-05 13:58:32.192,1.1449375,0.67233163,0.6251171,0.50046504,0.041992582,0,807.0696,785.7143,780.87915,795.78754
2022-07-05 13:58:32.192,1.1449375,0.67233163,0.6251171,0.50046504,0.041992582,0,831.6484,821.978,850.58606,836.4835
2022-07-05 13:58:32.221,1.1449375,0.67233163,0.6251171,0.50046504,0.041992582,0,824.7985,819.15753,822.381,822.7839
2022-07-05 13:58:32.222,1.1449375,0.67233163,0.6251171,0.50046504,0.041992582,0,789.7436,794.17584,752.674,769.19415
2022-07-05 13:58:32.222,1.1449375,0.67233163,0.6251171,0.50046504,0.041992582,0,782.49084,799.011,764.7619,763.1502
2022-07-05 13:58:32.223,1.1449375,0.67233163,0.6251171,0.50046504,0.041992582,0,808.2784,837.6923,838.9011,810.293
2022-07-05 13:58:32.223,1.1449375,0.67233163,0.6251171,0.50046504,0.041992582,0,813.5165,843.73627,838.9011,813.91943
2022-07-05 13:58:32.223,1.1449375,0.67233163,0.6251171,0.50046504,0.041992582,0,782.8938,814.3223,759.92676,762.74725
2022-07-05 13:58:32.224,1.1449375,0.67233163,0.6251171,0.50046504,0.041992582,0,770.40295,799.81683,741.39197,747.03296
2022-07-05 13:58:32.224,1.1449375,0.67233163,0.6251171,0.50046504,0.041992582,0,790.9524,809.0842,807.47253,788.1319
2022-07-05 13:58:32.224,1.1449375,0.67233163,0.6251171,0.50046504,0.041992582,0,807.47253,826.4103,845.34796,819.9634
2022-07-05 13:58:32.224,1.1736716,0.69921243,0.61255574,0.52082044,0.048258107,0,784.5055,805.8608,778.0586,778.46155
2022-07-05 13:58:32.226,1.1736716,0.69921243,0.61255574,0.52082044,0.048258107,0,763.5531,783.69965,736.9597,748.6447
2022-07-05 13:58:32.226,1.1736716,0.69921243,0.61255574,0.52082044,0.048258107,0,772.01465,798.20514,794.57874,781.685
2022-07-05 13:58:32.288,1.1736716,0.69921243,0.61255574,0.52082044,0.048258107,0,796.99634,838.0952,861.4652,825.6044
2022-07-05 13:58:32.289,1.1736716,0.69921243,0.61255574,0.52082044,0.048258107,0,787.72894,819.5604,809.0842,801.4286
2022-07-05 13:58:32.289,1.1736716,0.69921243,0.61255574,0.52082044,0.048258107,0,765.56775,783.2967,743.8095,757.50916
2022-07-05 13:58:32.289,1.1736716,0.69921243,0.61255574,0.52082044,0.048258107,0,777.25275,789.7436,777.25275,780.87915
2022-07-05 13:58:32.290,1.1736716,0.69921243,0.61255574,0.52082044,0.048258107,0,817.1429,838.49817,856.2271,836.8865
2022-07-05 13:58:32.290,1.1736716,0.69921243,0.61255574,0.52082044,0.048258107,0,813.5165,843.73627,836.8865,830.0366
2022-07-05 13:58:32.290,1.1736716,0.69921243,0.61255574,0.52082044,0.048258107,0,784.10254,796.5934,755.4945,778.46155
2022-07-05 13:58:32.291,1.1736716,0.69921243,0.61255574,0.52082044,0.048258107,0,775.64105,775.2381,754.68866,772.01465
2022-07-05 13:58:32.291,1.1736716,0.69921243,0.61255574,0.52082044,0.048258107,0,796.5934,797.3993,831.6484,819.9634
2022-07-05 13:58:32.291,1.1736716,0.69921243,0.61255574,0.52082044,0.048258107,0,815.5311,823.9927,849.3773,836.4835
2022-07-05 13:58:32.292,1.1736716,0.69921243,0.61255574,0.52082044,0.048258107,0,787.326,798.20514,766.77655,787.326
2022-07-05 13:58:32.292,1.1736716,0.69921243,0.61255574,0.52082044,0.048258107,0,777.25275,778.46155,741.79486,766.3736
2022-07-05 13:58:32.321,1.1736716,0.69921243,0.61255574,0.52082044,0.048258107,0,800.2198,814.7253,818.3516,810.696
2022-07-05 13:58:32.322,1.1736716,0.69921243,0.61255574,0.52082044,0.048258107,0,814.7253,844.94507,863.8828,840.10986
2022-07-05 13:58:32.322,1.1736716,0.69921243,0.61255574,0.52082044,0.048258107,0,797.3993,813.5165,792.1612,798.20514
2022-07-05 13:58:32.322,1.1736716,0.69921243,0.61255574,0.52082044,0.048258107,0,776.8498,785.31134,743.8095,766.3736
2022-07-05 13:58:32.323,1.1736716,0.69921243,0.61255574,0.52082044,0.048258107,0,785.7143,802.23444,793.36993,793.7729
2022-07-05 13:58:32.323,1.1736716,0.69921243,0.61255574,0.52082044,0.048258107,0,818.7546,855.82416,863.47986,843.73627
2022-07-05 13:58:32.323,1.1736716,0.69921243,0.61255574,0.52082044,0.048258107,0,817.9487,848.97437,826.4103,829.2308
2022-07-05 13:58:32.324,1.1736716,0.69921243,0.61255574,0.52082044,0.048258107,0,792.5641,794.17584,752.27106,784.10254
2022-07-05 13:58:32.324,1.1736716,0.69921243,0.61255574,0.52082044,0.048258107,0,790.9524,782.49084,772.01465,799.011
2022-07-05 13:58:32.324,1.1736716,0.69921243,0.61255574,0.52082044,0.048258107,0,813.91943,816.7399,853.00366,847.3626
2022-07-05 13:58:32.325,1.1736716,0.69921243,0.61255574,0.52082044,0.048258107,0,821.978,825.6044,846.1539,843.3333
2022-07-05 13:58:32.325,1.2079216,0.7283602,0.60748786,0.5331572,0.044285968,0,800.2198,799.41394,771.2088,797.8022
2022-07-05 13:58:32.380,1.2079216,0.7283602,0.60748786,0.5331572,0.044285968,0,791.3553,794.9817,768.3883,794.17584
2022-07-05 13:58:32.381,1.2079216,0.7283602,0.60748786,0.5331572,0.044285968,0,813.1135,822.381,840.9158,842.9304
2022-07-05 13:58:32.382,1.2079216,0.7283602,0.60748786,0.5331572,0.044285968,0,828.8278,840.5128,865.09155,864.2857
2022-07-05 13:58:32.382,1.2079216,0.7283602,0.60748786,0.5331572,0.044285968,0,801.4286,797.8022,788.5348,815.9341
2022-07-05 13:58:32.382,1.2079216,0.7283602,0.60748786,0.5331572,0.044285968,0,782.0879,775.2381,754.68866,779.67035
2022-07-05 13:58:32.383,1.2079216,0.7283602,0.60748786,0.5331572,0.044285968,0,801.8315,819.15753,823.5897,811.0989
2022-07-05 13:58:32.383,1.2079216,0.7283602,0.60748786,0.5331572,0.044285968,0,823.1868,855.0183,877.98535,849.7802
2022-07-05 13:58:32.383,1.2079216,0.7283602,0.60748786,0.5331572,0.044285968,0,809.4872,815.12823,812.3077,819.5604
2022-07-05 13:58:32.384,1.2079216,0.7283602,0.60748786,0.5331572,0.044285968,0,786.1172,770.40295,749.85345,778.46155
2022-07-05 13:58:32.384,1.2079216,0.7283602,0.60748786,0.5331572,0.044285968,0,789.34064,786.52014,789.7436,791.75824
2022-07-05 13:58:32.384,1.2079216,0.7283602,0.60748786,0.5331572,0.044285968,0,816.7399,834.0659,860.2564,838.9011
2022-07-05 13:58:32.385,1.2079216,0.7283602,0.60748786,0.5331572,0.044285968,0,815.5311,811.0989,821.5751,829.2308
2022-07-05 13:58:32.413,1.2079216,0.7283602,0.60748786,0.5331572,0.044285968,0,789.34064,775.64105,752.674,786.52014
2022-07-05 13:58:32.414,1.2079216,0.7283602,0.60748786,0.5331572,0.044285968,0,786.1172,784.5055,770,784.90845
2022-07-05 13:58:32.415,1.2079216,0.7283602,0.60748786,0.5331572,0.044285968,0,812.71063,818.3516,843.3333,824.7985
2022-07-05 13:58:32.415,1.2079216,0.7283602,0.60748786,0.5331572,0.044285968,0,821.978,819.15753,840.10986,826.8132
2022-07-05 13:58:32.415,1.2079216,0.7283602,0.60748786,0.5331572,0.044285968,0,799.41394,768.3883,762.74725,774.83514
2022-07-05 13:58:32.416,1.2079216,0.7283602,0.60748786,0.5331572,0.044285968,0,785.7143,775.2381,752.27106,758.315
2022-07-05 13:58:32.416,1.2079216,0.7283602,0.60748786,0.5331572,0.044285968,0,811.50183,837.28937,831.2454,810.293
2022-07-05 13:58:32.416,1.2079216,0.7283602,0.60748786,0.5331572,0.044285968,0,832.0513,840.5128,861.4652,840.5128
2022-07-05 13:58:32.416,1.2079216,0.7283602,0.60748786,0.5331572,0.044285968,0,809.4872,798.20514,780.07324,796.5934
2022-07-05 13:58:32.417,1.2079216,0.7283602,0.60748786,0.5331572,0.044285968,0,790.14655,776.04395,741.79486,769.59705
2022-07-05 13:58:32.417,1.2079216,0.7283602,0.60748786,0.5331572,0.044285968,0,804.65204,801.8315,801.8315,803.0403
2022-07-05 13:58:32.417,1.2079216,0.7283602,0.60748786,0.5331572,0.044285968,0,827.2161,840.10986,859.0476,843.3333
2022-07-05 13:58:32.469,1.2079216,0.7283602,0.60748786,0.5331572,0.044285968,0,807.8755,811.0989,804.65204,812.71063
2022-07-05 13:58:32.470,1.2466657,0.75384086,0.60541725,0.53023714,0.026097743,0,788.93774,792.5641,748.24176,775.2381
2022-07-05 13:58:32.472,1.2466657,0.75384086,0.60541725,0.53023714,0.026097743,0,796.1905,806.6667,784.90845,794.9817
2022-07-05 13:58:32.472,1.2466657,0.75384086,0.60541725,0.53023714,0.026097743,0,817.9487,833.663,854.21246,835.6777
2022-07-05 13:58:32.473,1.2466657,0.75384086,0.60541725,0.53023714,0.026097743,0,819.5604,829.6337,823.9927,818.7546
2022-07-05 13:58:32.473,1.2466657,0.75384086,0.60541725,0.53023714,0.026097743,0,796.1905,794.17584,756.30035,771.2088
2022-07-05 13:58:32.473,1.2466657,0.75384086,0.60541725,0.53023714,0.026097743,0,787.326,797.8022,771.2088,775.64105
2022-07-05 13:58:32.473,1.2466657,0.75384086,0.60541725,0.53023714,0.026097743,0,815.5311,820.7692,848.1685,832.8571
2022-07-05 13:58:32.474,1.2466657,0.75384086,0.60541725,0.53023714,0.026097743,0,834.4689,821.5751,855.42126,846.55676
2022-07-05 13:58:32.474,1.2466657,0.75384086,0.60541725,0.53023714,0.026097743,0,812.71063,771.2088,772.4176,801.8315
2022-07-05 13:58:32.474,1.2466657,0.75384086,0.60541725,0.53023714,0.026097743,0,800.2198,726.4835,749.45056,792.96704
2022-07-05 13:58:32.475,1.2466657,0.75384086,0.60541725,0.53023714,0.026097743,0,827.619,762.74725,821.1722,833.663
2022-07-05 13:58:32.504,1.2466657,0.75384086,0.60541725,0.53023714,0.026097743,0,854.61536,798.20514,861.8681,865.89746
2022-07-05 13:58:32.505,1.2466657,0.75384086,0.60541725,0.53023714,0.026097743,0,833.663,792.5641,796.99634,827.619
2022-07-05 13:58:32.505,1.2466657,0.75384086,0.60541725,0.53023714,0.026097743,0,807.47253,813.1135,762.3443,788.1319
2022-07-05 13:58:32.505,1.2466657,0.75384086,0.60541725,0.53023714,0.026097743,0,818.3516,843.73627,817.5458,813.5165
2022-07-05 13:58:32.505,1.2466657,0.75384086,0.60541725,0.53023714,0.026097743,0,847.3626,875.9707,874.35895,853.8095
2022-07-05 13:58:32.506,1.2466657,0.75384086,0.60541725,0.53023714,0.026097743,0,834.0659,854.21246,822.381,823.1868
2022-07-05 13:58:32.506,1.2466657,0.75384086,0.60541725,0.53023714,0.026097743,0,805.8608,801.4286,756.7033,780.4762
2022-07-05 13:58:32.506,1.2466657,0.75384086,0.60541725,0.53023714,0.026097743,0,805.05493,792.1612,782.49084,796.99634
2022-07-05 13:58:32.506,1.2466657,0.75384086,0.60541725,0.53023714,0.026097743,0,823.9927,826.0073,854.61536,837.28937
2022-07-05 13:58:32.507,1.2466657,0.75384086,0.60541725,0.53023714,0.026097743,0,818.3516,819.15753,836.08057,825.2015
2022-07-05 13:58:32.507,1.2466657,0.75384086,0.60541725,0.53023714,0.026097743,0,792.96704,774.0293,757.1062,780.07324
2022-07-05 13:58:32.507,1.2466657,0.75384086,0.60541725,0.53023714,0.026097743,0,786.52014,766.77655,756.30035,772.4176
2022-07-05 13:58:32.554,1.2466657,0.75384086,0.60541725,0.53023714,0.026097743,0,804.65204,813.5165,835.2747,815.5311
2022-07-05 13:58:32.554,1.2466657,0.75384086,0.60541725,0.53023714,0.026097743,0,813.1135,830.0366,850.18317,834.4689
2022-07-05 13:58:32.555,1.2466657,0.75384086,0.60541725,0.53023714,0.026097743,0,784.10254,783.2967,764.7619,785.31134
2022-07-05 13:58:32.555,1.2577937,0.7567141,0.6358979,0.49594912,-0.013663585,0,763.1502,757.1062,733.3333,755.4945
2022-07-05 13:58:32.556,1.2577937,0.7567141,0.6358979,0.49594912,-0.013663585,0,782.8938,785.31134,804.2491,790.9524
2022-07-05 13:58:32.556,1.2577937,0.7567141,0.6358979,0.49594912,-0.013663585,0,807.0696,827.619,847.76556,820.3663
2022-07-05 13:58:32.556,1.2577937,0.7567141,0.6358979,0.49594912,-0.013663585,0,783.69965,804.65204,782.0879,783.69965
2022-07-05 13:58:32.557,1.2577937,0.7567141,0.6358979,0.49594912,-0.013663585,0,763.1502,767.5824,738.97437,755.4945
2022-07-05 13:58:32.557,1.2577937,0.7567141,0.6358979,0.49594912,-0.013663585,0,775.64105,771.6117,784.90845,784.5055
2022-07-05 13:58:32.557,1.2577937,0.7567141,0.6358979,0.49594912,-0.013663585,0,810.293,810.696,855.82416,834.0659
2022-07-05 13:58:32.557,1.2577937,0.7567141,0.6358979,0.49594912,-0.013663585,0,811.9048,803.0403,820.3663,821.978
2022-07-05 13:58:32.558,1.2577937,0.7567141,0.6358979,0.49594912,-0.013663585,0,782.49084,765.9707,749.85345,774.43225
2022-07-05 13:58:32.613,1.2577937,0.7567141,0.6358979,0.49594912,-0.013663585,0,774.83514,769.59705,769.59705,779.67035
2022-07-05 13:58:32.613,1.2577937,0.7567141,0.6358979,0.49594912,-0.013663585,0,807.47253,814.7253,846.9597,832.8571
2022-07-05 13:58:32.614,1.2577937,0.7567141,0.6358979,0.49594912,-0.013663585,0,817.5458,821.5751,836.4835,836.08057
2022-07-05 13:58:32.614,1.2577937,0.7567141,0.6358979,0.49594912,-0.013663585,0,783.69965,773.22345,754.2857,786.1172
2022-07-05 13:58:32.614,1.2577937,0.7567141,0.6358979,0.49594912,-0.013663585,0,774.0293,757.50916,746.63007,775.2381
2022-07-05 13:58:32.615,1.2577937,0.7567141,0.6358979,0.49594912,-0.013663585,0,804.2491,815.9341,832.0513,826.8132
2022-07-05 13:58:32.615,1.2577937,0.7567141,0.6358979,0.49594912,-0.013663585,0,830.0366,856.2271,864.2857,856.63007
2022-07-05 13:58:32.616,1.2577937,0.7567141,0.6358979,0.49594912,-0.013663585,0,811.9048,802.6374,781.685,808.2784
2022-07-05 13:58:32.616,1.2577937,0.7567141,0.6358979,0.49594912,-0.013663585,0,792.96704,760.32965,742.6007,777.6557
2022-07-05 13:58:32.617,1.2577937,0.7567141,0.6358979,0.49594912,-0.013663585,0,807.0696,788.93774,804.65204,811.0989
2022-07-05 13:58:32.617,1.2577937,0.7567141,0.6358979,0.49594912,-0.013663585,0,837.6923,834.4689,859.45056,850.58606
2022-07-05 13:58:32.617,1.2577937,0.7567141,0.6358979,0.49594912,-0.013663585,0,832.4542,810.293,799.011,821.5751
2022-07-05 13:58:32.646,1.2577937,0.7567141,0.6358979,0.49594912,-0.013663585,0,806.6667,769.59705,741.39197,784.90845
2022-07-05 13:58:32.647,1.2577937,0.7567141,0.6358979,0.49594912,-0.013663585,0,815.5311,783.2967,788.1319,809.89014
2022-07-05 13:58:32.647,1.2577937,0.7567141,0.6358979,0.49594912,-0.013663585,0,847.76556,829.6337,865.4945,856.2271
2022-07-05 13:58:32.648,1.2577937,0.7567141,0.6358979,0.49594912,-0.013663585,0,843.3333,824.3956,829.2308,839.304
2022-07-05 13:58:32.648,1.2577937,0.7567141,0.6358979,0.49594912,-0.013663585,0,813.5165,788.1319,753.8828,793.36993
2022-07-05 13:58:32.648,1.2599002,0.7506784,0.6403399,0.44000888,-0.057033394,0,806.26373,802.23444,773.22345,793.7729
2022-07-05 13:58:32.650,1.2599002,0.7506784,0.6403399,0.44000888,-0.057033394,0,826.8132,847.3626,856.2271,839.707
2022-07-05 13:58:32.650,1.2599002,0.7506784,0.6403399,0.44000888,-0.057033394,0,829.6337,835.6777,856.2271,846.9597
2022-07-05 13:58:32.650,1.2599002,0.7506784,0.6403399,0.44000888,-0.057033394,0,799.81683,788.93774,766.3736,794.17584
2022-07-05 13:58:32.651,1.2599002,0.7506784,0.6403399,0.44000888,-0.057033394,0,786.9231,774.43225,746.2271,776.4469
2022-07-05 13:58:32.651,1.2599002,0.7506784,0.6403399,0.44000888,-0.057033394,0,804.65204,809.89014,823.5897,821.5751
2022-07-05 13:58:32.651,1.2599002,0.7506784,0.6403399,0.44000888,-0.057033394,0,825.2015,843.73627,865.4945,851.79486
2022-07-05 13:58:32.681,1.2599002,0.7506784,0.6403399,0.44000888,-0.057033394,0,801.02563,813.1135,792.1612,806.6667
2022-07-05 13:58:32.682,1.2599002,0.7506784,0.6403399,0.44000888,-0.057033394,0,777.25275,795.78754,749.0476,776.8498
2022-07-05 13:58:32.682,1.2599002,0.7506784,0.6403399,0.44000888,-0.057033394,0,794.9817,809.4872,805.05493,808.2784
2022-07-05 13:58:32.682,1.2599002,0.7506784,0.6403399,0.44000888,-0.057033394,0,823.5897,837.28937,862.27106,842.9304
2022-07-05 13:58:32.683,1.2599002,0.7506784,0.6403399,0.44000888,-0.057033394,0,809.0842,809.0842,805.05493,815.9341
2022-07-05 13:58:32.683,1.2599002,0.7506784,0.6403399,0.44000888,-0.057033394,0,779.2674,771.2088,743.4066,767.5824
2022-07-05 13:58:32.683,1.2599002,0.7506784,0.6403399,0.44000888,-0.057033394,0,786.9231,792.5641,782.0879,775.2381
2022-07-05 13:58:32.684,1.2599002,0.7506784,0.6403399,0.44000888,-0.057033394,0,815.12823,821.978,861.8681,823.1868
2022-07-05 13:58:32.684,1.2599002,0.7506784,0.6403399,0.44000888,-0.057033394,0,808.68134,810.293,835.2747,816.7399
2022-07-05 13:58:32.684,1.2599002,0.7506784,0.6403399,0.44000888,-0.057033394,0,782.49084,774.43225,755.89746,764.7619
2022-07-05 13:58:32.684,1.2599002,0.7506784,0.6403399,0.44000888,-0.057033394,0,778.0586,771.2088,761.53845,760.32965
2022-07-05 13:58:32.685,1.2599002,0.7506784,0.6403399,0.44000888,-0.057033394,0,805.8608,819.15753,844.94507,815.9341
2022-07-05 13:58:32.739,1.2599002,0.7506784,0.6403399,0.44000888,-0.057033394,0,818.7546,838.0952,862.27106,834.87177
2022-07-05 13:58:32.740,1.2599002,0.7506784,0.6403399,0.44000888,-0.057033394,0,791.75824,790.54944,775.2381,783.69965
2022-07-05 13:58:32.741,1.2599002,0.7506784,0.6403399,0.44000888,-0.057033394,0,781.685,771.6117,749.0476,763.1502
2022-07-05 13:58:32.741,1.2599002,0.7506784,0.6403399,0.44000888,-0.057033394,0,806.6667,826.8132,831.6484,809.0842
2022-07-05 13:58:32.741,1.2599002,0.7506784,0.6403399,0.44000888,-0.057033394,0,823.1868,853.8095,873.95605,838.0952
2022-07-05 13:58:32.742,1.2599002,0.7506784,0.6403399,0.44000888,-0.057033394,0,802.6374,815.9341,796.5934,801.02563
2022-07-05 13:58:32.742,1.2599002,0.7506784,0.6403399,0.44000888,-0.057033394,0,781.685,791.75824,753.47986,773.22345
2022-07-05 13:58:32.742,1.2575688,0.7430497,0.63947964,0.37983406,-0.08952123,0,788.93774,787.72894,804.65204,802.23444
2022-07-05 13:58:32.744,1.2575688,0.7430497,0.63947964,0.37983406,-0.08952123,0,817.1429,814.3223,869.92676,848.1685
2022-07-05 13:58:32.744,1.2575688,0.7430497,0.63947964,0.37983406,-0.08952123,0,807.8755,804.65204,821.1722,823.1868
2022-07-05 13:58:32.745,1.2575688,0.7430497,0.63947964,0.37983406,-0.08952123,0,784.5055,778.86444,754.68866,780.07324
2022-07-05 13:58:32.745,1.2575688,0.7430497,0.63947964,0.37983406,-0.08952123,0,792.1612,788.93774,785.7143,793.7729
2022-07-05 13:58:32.805,1.2575688,0.7430497,0.63947964,0.37983406,-0.08952123,0,823.9927,835.6777,865.4945,839.304
2022-07-05 13:58:32.806,1.2575688,0.7430497,0.63947964,0.37983406,-0.08952123,0,831.2454,842.52747,850.18317,842.1245
2022-07-05 13:58:32.806,1.2575688,0.7430497,0.63947964,0.37983406,-0.08952123,0,803.0403,800.6227,765.56775,791.75824
2022-07-05 13:58:32.807,1.2575688,0.7430497,0.63947964,0.37983406,-0.08952123,0,792.96704,777.6557,759.12085,776.4469
2022-07-05 13:58:32.807,1.2575688,0.7430497,0.63947964,0.37983406,-0.08952123,0,820.7692,813.1135,840.5128,822.381
2022-07-05 13:58:32.807,1.2575688,0.7430497,0.63947964,0.37983406,-0.08952123,0,835.6777,857.03296,863.8828,844.5421
2022-07-05 13:58:32.808,1.2575688,0.7430497,0.63947964,0.37983406,-0.08952123,0,808.68134,824.7985,778.86444,795.78754
2022-07-05 13:58:32.808,1.2575688,0.7430497,0.63947964,0.37983406,-0.08952123,0,796.99634,786.1172,744.61536,770.80585
2022-07-05 13:58:32.808,1.2575688,0.7430497,0.63947964,0.37983406,-0.08952123,0,819.9634,809.4872,817.1429,808.2784
2022-07-05 13:58:32.809,1.2575688,0.7430497,0.63947964,0.37983406,-0.08952123,0,839.304,833.2601,867.1062,838.0952
2022-07-05 13:58:32.809,1.2575688,0.7430497,0.63947964,0.37983406,-0.08952123,0,814.7253,798.60803,790.54944,798.60803
2022-07-05 13:58:32.809,1.2575688,0.7430497,0.63947964,0.37983406,-0.08952123,0,790.9524,773.22345,736.55676,760.7326
2022-07-05 13:58:32.872,1.2575688,0.7430497,0.63947964,0.37983406,-0.08952123,0,799.011,792.5641,788.5348,784.10254
2022-07-05 13:58:32.873,1.2575688,0.7430497,0.63947964,0.37983406,-0.08952123,0,830.0366,836.8865,866.30035,834.0659
2022-07-05 13:58:32.873,1.2575688,0.7430497,0.63947964,0.37983406,-0.08952123,0,821.978,815.5311,823.9927,821.5751
2022-07-05 13:58:32.874,1.2575688,0.7430497,0.63947964,0.37983406,-0.08952123,0,789.34064,768.7912,743.4066,776.04395
2022-07-05 13:58:32.874,1.2575688,0.7430497,0.63947964,0.37983406,-0.08952123,0,784.5055,774.83514,767.98535,781.28204
2022-07-05 13:58:32.874,1.2575688,0.7430497,0.63947964,0.37983406,-0.08952123,0,807.0696,828.8278,861.4652,833.2601
2022-07-05 13:58:32.875,1.2575688,0.7430497,0.63947964,0.37983406,-0.08952123,0,813.5165,839.304,857.03296,836.08057
2022-07-05 13:58:32.875,1.2575688,0.7430497,0.63947964,0.37983406,-0.08952123,0,782.8938,771.2088,761.13556,781.28204
2022-07-05 13:58:32.875,1.2575688,0.7430497,0.63947964,0.37983406,-0.08952123,0,772.4176,748.24176,748.6447,766.77655
2022-07-05 13:58:32.875,1.2499613,0.7323196,0.63947964,0.33384153,-0.09837614,0,801.4286,808.2784,836.08057,815.5311
2022-07-05 13:58:32.877,1.2499613,0.7323196,0.63947964,0.33384153,-0.09837614,0,818.7546,833.663,865.4945,840.10986
2022-07-05 13:58:32.877,1.2499613,0.7323196,0.63947964,0.33384153,-0.09837614,0,787.72894,772.8205,779.2674,790.54944
2022-07-05 13:58:32.905,1.2499613,0.7323196,0.63947964,0.33384153,-0.09837614,0,768.7912,761.13556,746.2271,764.35895
2022-07-05 13:58:32.905,1.2499613,0.7323196,0.63947964,0.33384153,-0.09837614,0,787.72894,809.4872,815.9341,795.78754
2022-07-05 13:58:32.906,1.2499613,0.7323196,0.63947964,0.33384153,-0.09837614,0,813.5165,842.1245,873.5531,834.87177
2022-07-05 13:58:32.906,1.2499613,0.7323196,0.63947964,0.33384153,-0.09837614,0,791.75824,803.44324,805.05493,801.02563
2022-07-05 13:58:32.906,1.2499613,0.7323196,0.63947964,0.33384153,-0.09837614,0,780.07324,772.01465,745.82416,772.4176
2022-07-05 13:58:32.907,1.2499613,0.7323196,0.63947964,0.33384153,-0.09837614,0,814.3223,806.6667,800.2198,811.0989
2022-07-05 13:58:32.907,1.2499613,0.7323196,0.63947964,0.33384153,-0.09837614,0,828.4249,856.2271,875.16486,835.2747
2022-07-05 13:58:32.907,1.2499613,0.7323196,0.63947964,0.33384153,-0.09837614,0,793.7729,823.5897,826.8132,801.8315
2022-07-05 13:58:32.908,1.2499613,0.7323196,0.63947964,0.33384153,-0.09837614,0,754.2857,767.1795,737.76556,749.0476
2022-07-05 13:58:32.908,1.2499613,0.7323196,0.63947964,0.33384153,-0.09837614,0,742.1978,772.01465,745.42126,734.94507
2022-07-05 13:58:32.908,1.2499613,0.7323196,0.63947964,0.33384153,-0.09837614,0,764.35895,815.12823,826.4103,779.67035
2022-07-05 13:58:32.908,1.2499613,0.7323196,0.63947964,0.33384153,-0.09837614,0,771.2088,815.5311,830.0366,785.31134
2022-07-05 13:58:32.939,1.2499613,0.7323196,0.63947964,0.33384153,-0.09837614,0,730.5128,785.31134,737.76556,713.1868
2022-07-05 13:58:32.940,1.2499613,0.7323196,0.63947964,0.33384153,-0.09837614,0,713.9927,775.2381,709.9634,690.2198
2022-07-05 13:58:32.940,1.2499613,0.7323196,0.63947964,0.33384153,-0.09837614,0,716.0073,790.54944,792.5641,724.4689
2022-07-05 13:58:32.941,1.2499613,0.7323196,0.63947964,0.33384153,-0.09837614,0,722.0513,814.7253,839.304,739.7802
2022-07-05 13:58:32.941,1.2499613,0.7323196,0.63947964,0.33384153,-0.09837614,0,708.7546,786.1172,755.09155,697.8755
2022-07-05 13:58:32.942,1.2499613,0.7323196,0.63947964,0.33384153,-0.09837614,0,691.8315,763.5531,711.1722,662.8205
2022-07-05 13:58:32.942,1.2499613,0.7323196,0.63947964,0.33384153,-0.09837614,0,693.8461,785.31134,778.86444,689.81683
2022-07-05 13:58:32.942,1.2499613,0.7323196,0.63947964,0.33384153,-0.09837614,0,721.6484,813.1135,848.1685,738.1685
2022-07-05 13:58:32.943,1.2499613,0.7323196,0.63947964,0.33384153,-0.09837614,0,725.2747,787.326,790.9524,721.2454
2022-07-05 13:58:32.943,1.2499613,0.7323196,0.63947964,0.33384153,-0.09837614,0,687.8022,758.71796,723.663,669.67035
2022-07-05 13:58:32.944,1.2499613,0.7323196,0.63947964,0.33384153,-0.09837614,0,689.81683,776.04395,766.3736,682.96704
2022-07-05 13:58:32.944,1.2319248,0.7133436,0.63947964,0.3092282,-0.08384048,0,730.10986,810.696,845.7509,748.6447
2022-07-05 13:58:33.006,1.2319248,0.7133436,0.63947964,0.3092282,-0.08384048,0,731.31866,805.8608,818.3516,746.63007
2022-07-05 13:58:33.007,1.2319248,0.7133436,0.63947964,0.3092282,-0.08384048,0,707.1429,782.49084,741.79486,701.50183
2022-07-05 13:58:33.008,1.2319248,0.7133436,0.63947964,0.3092282,-0.08384048,0,710.3663,780.07324,740.58606,702.71063
2022-07-05 13:58:33.008,1.2319248,0.7133436,0.63947964,0.3092282,-0.08384048,0,745.82416,826.4103,826.4103,752.674
2022-07-05 13:58:33.008,1.2319248,0.7133436,0.63947964,0.3092282,-0.08384048,0,753.8828,838.9011,842.52747,767.1795
2022-07-05 13:58:33.009,1.2319248,0.7133436,0.63947964,0.3092282,-0.08384048,0,727.6923,796.5934,753.47986,716.8132
2022-07-05 13:58:33.009,1.2319248,0.7133436,0.63947964,0.3092282,-0.08384048,0,723.2601,783.69965,729.304,701.50183
2022-07-05 13:58:33.009,1.2319248,0.7133436,0.63947964,0.3092282,-0.08384048,0,747.03296,793.36993,801.4286,747.8388
2022-07-05 13:58:33.010,1.2319248,0.7133436,0.63947964,0.3092282,-0.08384048,0,768.3883,820.7692,850.58606,781.685
2022-07-05 13:58:33.010,1.2319248,0.7133436,0.63947964,0.3092282,-0.08384048,0,749.85345,798.20514,773.22345,741.39197
2022-07-05 13:58:33.010,1.2319248,0.7133436,0.63947964,0.3092282,-0.08384048,0,734.5421,766.77655,718.022,705.9341
2022-07-05 13:58:33.010,1.2319248,0.7133436,0.63947964,0.3092282,-0.08384048,0,749.45056,791.75824,778.0586,736.55676
2022-07-05 13:58:33.039,1.2319248,0.7133436,0.63947964,0.3092282,-0.08384048,0,782.0879,840.9158,857.8388,788.5348
2022-07-05 13:58:33.040,1.2319248,0.7133436,0.63947964,0.3092282,-0.08384048,0,777.25275,827.2161,803.44324,772.01465
2022-07-05 13:58:33.040,1.2319248,0.7133436,0.63947964,0.3092282,-0.08384048,0,750.65936,786.9231,711.5751,732.9304
2022-07-05 13:58:33.040,1.2319248,0.7133436,0.63947964,0.3092282,-0.08384048,0,755.89746,780.87915,737.76556,751.06226
2022-07-05 13:58:33.041,1.2319248,0.7133436,0.63947964,0.3092282,-0.08384048,0,779.67035,809.0842,827.619,787.72894
2022-07-05 13:58:33.041,1.2319248,0.7133436,0.63947964,0.3092282,-0.08384048,0,774.43225,820.3663,828.4249,778.86444
2022-07-05 13:58:33.041,1.2319248,0.7133436,0.63947964,0.3092282,-0.08384048,0,736.55676,791.3553,754.2857,724.4689
2022-07-05 13:58:33.041,1.2319248,0.7133436,0.63947964,0.3092282,-0.08384048,0,728.49817,770.80585,745.42126,719.6337
2022-07-05 13:58:33.042,1.2319248,0.7133436,0.63947964,0.3092282,-0.08384048,0,765.56775,788.93774,828.022,780.07324
2022-07-05 13:58:33.042,1.2319248,0.7133436,0.63947964,0.3092282,-0.08384048,0,788.5348,821.5751,863.8828,808.2784
2022-07-05 13:58:33.042,1.2319248,0.7133436,0.63947964,0.3092282,-0.08384048,0,762.3443,794.9817,778.0586,765.16486
2022-07-05 13:58:33.043,1.2319248,0.7133436,0.63947964,0.3092282,-0.08384048,0,748.6447,771.6117,739.7802,743.00366
2022-07-05 13:58:33.072,1.2319248,0.7133436,0.63947964,0.3092282,-0.08384048,0,775.2381,805.4579,814.3223,788.1319
2022-07-05 13:58:33.072,1.2012923,0.6794043,0.6364301,0.29509777,-0.05680283,0,801.02563,834.4689,876.77655,835.2747
2022-07-05 13:58:33.074,1.2012923,0.6794043,0.6364301,0.29509777,-0.05680283,0,784.90845,791.75824,800.6227,801.4286
2022-07-05 13:58:33.075,1.2012923,0.6794043,0.6364301,0.29509777,-0.05680283,0,764.7619,768.7912,735.34796,754.68866
2022-07-05 13:58:33.075,1.2012923,0.6794043,0.6364301,0.29509777,-0.05680283,0,773.22345,793.7729,790.9524,777.25275
2022-07-05 13:58:33.075,1.2012923,0.6794043,0.6364301,0.29509777,-0.05680283,0,806.6667,846.1539,870.7326,823.1868
2022-07-05 13:58:33.076,1.2012923,0.6794043,0.6364301,0.29509777,-0.05680283,0,808.2784,834.87177,828.8278,807.47253
2022-07-05 13:58:33.076,1.2012923,0.6794043,0.6364301,0.29509777,-0.05680283,0,783.2967,767.5824,747.4359,763.5531
2022-07-05 13:58:33.076,1.2012923,0.6794043,0.6364301,0.29509777,-0.05680283,0,778.46155,771.6117,763.95605,763.95605
2022-07-05 13:58:33.076,1.2012923,0.6794043,0.6364301,0.29509777,-0.05680283,0,806.6667,822.7839,852.1978,807.8755
2022-07-05 13:58:33.077,1.2012923,0.6794043,0.6364301,0.29509777,-0.05680283,0,819.5604,825.6044,851.79486,816.7399
2022-07-05 13:58:33.077,1.2012923,0.6794043,0.6364301,0.29509777,-0.05680283,0,792.5641,770,756.30035,773.22345
2022-07-05 13:58:33.105,1.2012923,0.6794043,0.6364301,0.29509777,-0.05680283,0,787.72894,727.6923,734.1392,762.74725
2022-07-05 13:58:33.106,1.2012923,0.6794043,0.6364301,0.29509777,-0.05680283,0,806.26373,765.9707,822.381,808.2784
2022-07-05 13:58:33.107,1.2012923,0.6794043,0.6364301,0.29509777,-0.05680283,0,821.5751,803.0403,864.68866,842.1245
2022-07-05 13:58:33.107,1.2012923,0.6794043,0.6364301,0.29509777,-0.05680283,0,801.02563,801.4286,788.1319,800.2198
2022-07-05 13:58:33.107,1.2012923,0.6794043,0.6364301,0.29509777,-0.05680283,0,773.22345,818.7546,753.0769,767.5824
2022-07-05 13:58:33.107,1.2012923,0.6794043,0.6364301,0.29509777,-0.05680283,0,792.1612,860.65936,824.3956,804.65204
2022-07-05 13:58:33.108,1.2012923,0.6794043,0.6364301,0.29509777,-0.05680283,0,823.9927,890.87915,888.46155,845.34796
2022-07-05 13:58:33.108,1.2012923,0.6794043,0.6364301,0.29509777,-0.05680283,0,805.4579,831.2454,817.1429,810.293
2022-07-05 13:58:33.108,1.2012923,0.6794043,0.6364301,0.29509777,-0.05680283,0,779.67035,775.64105,745.0183,770
2022-07-05 13:58:33.109,1.2012923,0.6794043,0.6364301,0.29509777,-0.05680283,0,779.2674,792.1612,788.93774,789.7436
2022-07-05 13:58:33.109,1.2012923,0.6794043,0.6364301,0.29509777,-0.05680283,0,812.3077,847.3626,875.16486,842.1245
2022-07-05 13:58:33.109,1.2012923,0.6794043,0.6364301,0.29509777,-0.05680283,0,816.337,827.619,843.73627,834.4689
2022-07-05 13:58:33.205,1.2012923,0.6794043,0.6364301,0.29509777,-0.05680283,0,776.4469,769.19415,757.1062,777.25275
2022-07-05 13:58:33.206,1.2012923,0.6794043,0.6364301,0.29509777,-0.05680283,0,766.3736,761.53845,757.50916,771.2088
2022-07-05 13:58:33.207,1.2012923,0.6794043,0.6364301,0.29509777,-0.05680283,0,799.81683,804.65204,845.34796,826.8132
2022-07-05 13:58:33.207,1.1575327,0.63046134,0.6535837,0.2816612,-0.031141723,0,817.1429,824.7985,863.8828,846.55676
2022-07-05 13:58:33.209,1.1575327,0.63046134,0.6535837,0.2816612,-0.031141723,0,790.54944,780.87915,774.83514,796.1905
2022-07-05 13:58:33.209,1.1575327,0.63046134,0.6535837,0.2816612,-0.031141723,0,774.43225,790.54944,755.09155,773.6264
2022-07-05 13:58:33.209,1.1575327,0.63046134,0.6535837,0.2816612,-0.031141723,0,801.02563,835.2747,832.0513,816.337
2022-07-05 13:58:33.210,1.1575327,0.63046134,0.6535837,0.2816612,-0.031141723,0,832.4542,825.2015,876.3736,854.21246
2022-07-05 13:58:33.210,1.1575327,0.63046134,0.6535837,0.2816612,-0.031141723,0,812.3077,786.52014,789.7436,811.0989
2022-07-05 13:58:33.210,1.1575327,0.63046134,0.6535837,0.2816612,-0.031141723,0,788.93774,767.1795,731.31866,772.4176
2022-07-05 13:58:33.211,1.1575327,0.63046134,0.6535837,0.2816612,-0.031141723,0,802.23444,798.20514,799.011,802.6374
2022-07-05 13:58:33.211,1.1575327,0.63046134,0.6535837,0.2816612,-0.031141723,0,830.4396,844.1392,877.1795,846.55676
2022-07-05 13:58:33.238,1.1575327,0.63046134,0.6535837,0.2816612,-0.031141723,0,819.9634,821.5751,819.9634,823.1868
2022-07-05 13:58:33.239,1.1575327,0.63046134,0.6535837,0.2816612,-0.031141723,0,800.2198,774.83514,745.0183,783.69965
2022-07-05 13:58:33.239,1.1575327,0.63046134,0.6535837,0.2816612,-0.031141723,0,808.2784,778.46155,781.28204,793.36993
2022-07-05 13:58:33.240,1.1575327,0.63046134,0.6535837,0.2816612,-0.031141723,0,843.73627,828.4249,875.56775,853.8095
2022-07-05 13:58:33.240,1.1575327,0.63046134,0.6535837,0.2816612,-0.031141723,0,866.7033,833.2601,861.06226,881.6117
2022-07-05 13:58:33.240,1.1575327,0.63046134,0.6535837,0.2816612,-0.031141723,0,821.5751,788.5348,767.1795,811.0989
2022-07-05 13:58:33.241,1.1575327,0.63046134,0.6535837,0.2816612,-0.031141723,0,778.0586,772.01465,756.30035,763.5531
2022-07-05 13:58:33.241,1.1575327,0.63046134,0.6535837,0.2816612,-0.031141723,0,806.6667,814.7253,836.08057,810.293
2022-07-05 13:58:33.241,1.1575327,0.63046134,0.6535837,0.2816612,-0.031141723,0,823.9927,846.55676,863.0769,832.8571
2022-07-05 13:58:33.242,1.1575327,0.63046134,0.6535837,0.2816612,-0.031141723,0,796.1905,791.75824,770.40295,776.04395
2022-07-05 13:58:33.245,1.1575327,0.63046134,0.6535837,0.2816612,-0.031141723,0,772.8205,750.2564,730.10986,736.9597
2022-07-05 13:58:33.246,1.1575327,0.63046134,0.6535837,0.2816612,-0.031141723,0,770.80585,803.0403,806.26373,756.7033
2022-07-05 13:58:33.272,1.1575327,0.63046134,0.6535837,0.2816612,-0.031141723,0,787.326,840.10986,858.24176,792.1612
2022-07-05 13:58:33.273,1.1575327,0.63046134,0.6535837,0.2816612,-0.031141723,0,758.315,788.1319,773.6264,750.65936
2022-07-05 13:58:33.273,1.1575327,0.63046134,0.6535837,0.2816612,-0.031141723,0,710.7692,769.19415,705.5311,691.02563
2022-07-05 13:58:33.274,1.1575327,0.63046134,0.6535837,0.2816612,-0.031141723,0,728.0952,801.8315,767.5824,725.2747
2022-07-05 13:58:33.274,1.1575327,0.63046134,0.6535837,0.2816612,-0.031141723,0,762.3443,849.7802,857.4359,777.6557
2022-07-05 13:58:33.274,1.088952,0.56942,0.71325916,0.26770064,-0.014718145,0,747.03296,831.2454,807.8755,747.8388
2022-07-05 13:58:33.276,1.088952,0.56942,0.71325916,0.26770064,-0.014718145,0,732.9304,786.9231,724.87177,704.7253
2022-07-05 13:58:33.276,1.088952,0.56942,0.71325916,0.26770064,-0.014718145,0,744.21246,780.4762,751.4652,718.022
2022-07-05 13:58:33.277,1.088952,0.56942,0.71325916,0.26770064,-0.014718145,0,774.0293,810.293,841.7216,774.83514
2022-07-05 13:58:33.277,1.088952,0.56942,0.71325916,0.26770064,-0.014718145,0,782.49084,813.91943,838.0952,785.31134
2022-07-05 13:58:33.277,1.088952,0.56942,0.71325916,0.26770064,-0.014718145,0,755.09155,766.3736,747.8388,736.55676
2022-07-05 13:58:33.278,1.088952,0.56942,0.71325916,0.26770064,-0.014718145,0,750.2564,754.68866,734.94507,724.87177
2022-07-05 13:58:33.305,1.088952,0.56942,0.71325916,0.26770064,-0.014718145,0,783.2967,802.23444,823.9927,779.2674
2022-07-05 13:58:33.306,1.088952,0.56942,0.71325916,0.26770064,-0.014718145,0,803.44324,834.87177,857.03296,810.293
2022-07-05 13:58:33.306,1.088952,0.56942,0.71325916,0.26770064,-0.014718145,0,782.49084,787.72894,767.1795,769.59705
2022-07-05 13:58:33.306,1.088952,0.56942,0.71325916,0.26770064,-0.014718145,0,769.19415,747.4359,727.6923,748.6447
2022-07-05 13:58:33.307,1.088952,0.56942,0.71325916,0.26770064,-0.014718145,0,791.75824,787.72894,806.6667,791.75824
2022-07-05 13:58:33.307,1.088952,0.56942,0.71325916,0.26770064,-0.014718145,0,818.7546,850.18317,873.5531,833.2601
2022-07-05 13:58:33.307,1.088952,0.56942,0.71325916,0.26770064,-0.014718145,0,798.60803,820.3663,796.99634,798.20514
2022-07-05 13:58:33.307,1.088952,0.56942,0.71325916,0.26770064,-0.014718145,0,778.86444,758.71796,726.8865,757.9121
2022-07-05 13:58:33.308,1.088952,0.56942,0.71325916,0.26770064,-0.014718145,0,792.96704,776.04395,776.4469,782.49084
2022-07-05 13:58:33.308,1.088952,0.56942,0.71325916,0.26770064,-0.014718145,0,831.2454,825.2015,859.85345,839.707
2022-07-05 13:58:33.308,1.088952,0.56942,0.71325916,0.26770064,-0.014718145,0,836.4835,799.41394,819.5604,832.8571
2022-07-05 13:58:33.308,1.088952,0.56942,0.71325916,0.26770064,-0.014718145,0,807.8755,755.4945,742.1978,784.10254
2022-07-05 13:58:33.373,1.088952,0.56942,0.71325916,0.26770064,-0.014718145,0,800.2198,766.77655,766.3736,787.72894
2022-07-05 13:58:33.373,1.088952,0.56942,0.71325916,0.26770064,-0.014718145,0,828.022,820.7692,859.45056,841.7216
2022-07-05 13:58:33.374,1.088952,0.56942,0.71325916,0.26770064,-0.014718145,0,840.5128,830.0366,862.27106,853.8095
2022-07-05 13:58:33.374,1.088952,0.56942,0.71325916,0.26770064,-0.014718145,0,810.293,783.69965,769.19415,801.4286
2022-07-05 13:58:33.374,1.088952,0.56942,0.71325916,0.26770064,-0.014718145,0,793.7729,762.74725,749.45056,787.326
2022-07-05 13:58:33.375,1.088952,0.56942,0.71325916,0.26770064,-0.014718145,0,822.7839,815.9341,837.28937,842.1245
2022-07-05 13:58:33.375,1.088952,0.56942,0.71325916,0.26770064,-0.014718145,0,855.42126,852.6007,883.6264,873.95605
2022-07-05 13:58:33.375,0.9926655,0.50697505,0.8278223,0.26318204,-0.007455816,0,833.663,789.34064,794.17584,826.8132
2022-07-05 13:58:33.377,0.9926655,0.50697505,0.8278223,0.26318204,-0.007455816,0,804.65204,740.58606,745.0183,797.8022
2022-07-05 13:58:33.377,0.9926655,0.50697505,0.8278223,0.26318204,-0.007455816,0,817.5458,776.4469,812.71063,833.2601
2022-07-05 13:58:33.378,0.9926655,0.50697505,0.8278223,0.26318204,-0.007455816,0,841.7216,815.9341,877.1795,869.12085
2022-07-05 13:58:33.378,0.9926655,0.50697505,0.8278223,0.26318204,-0.007455816,0,820.7692,796.1905,813.1135,836.08057
2022-07-05 13:58:33.406,0.9926655,0.50697505,0.8278223,0.26318204,-0.007455816,0,793.36993,743.4066,738.1685,794.17584
2022-07-05 13:58:33.407,0.9926655,0.50697505,0.8278223,0.26318204,-0.007455816,0,803.44324,758.315,780.4762,812.3077
2022-07-05 13:58:33.407,0.9926655,0.50697505,0.8278223,0.26318204,-0.007455816,0,837.6923,862.27106,877.5824,865.09155
2022-07-05 13:58:33.407,0.9926655,0.50697505,0.8278223,0.26318204,-0.007455816,0,842.1245,857.4359,848.1685,853.4066
2022-07-05 13:58:33.408,0.9926655,0.50697505,0.8278223,0.26318204,-0.007455816,0,813.91943,784.5055,751.06226,799.41394
2022-07-05 13:58:33.408,0.9926655,0.50697505,0.8278223,0.26318204,-0.007455816,0,808.2784,783.2967,760.7326,796.1905
2022-07-05 13:58:33.408,0.9926655,0.50697505,0.8278223,0.26318204,-0.007455816,0,842.1245,837.28937,858.24176,845.7509
2022-07-05 13:58:33.408,0.9926655,0.50697505,0.8278223,0.26318204,-0.007455816,0,856.2271,837.6923,858.6447,862.27106
2022-07-05 13:58:33.409,0.9926655,0.50697505,0.8278223,0.26318204,-0.007455816,0,817.5458,784.5055,762.3443,811.9048
2022-07-05 13:58:33.409,0.9926655,0.50697505,0.8278223,0.26318204,-0.007455816,0,798.20514,769.59705,743.4066,788.93774
2022-07-05 13:58:33.409,0.9926655,0.50697505,0.8278223,0.26318204,-0.007455816,0,829.2308,801.4286,828.4249,830.84247
2022-07-05 13:58:33.409,0.9926655,0.50697505,0.8278223,0.26318204,-0.007455816,0,862.27106,845.34796,882.4176,871.9414
2022-07-05 13:58:33.505,0.9926655,0.50697505,0.8278223,0.26318204,-0.007455816,0,828.4249,817.5458,790.54944,827.2161
2022-07-05 13:58:33.506,0.9926655,0.50697505,0.8278223,0.26318204,-0.007455816,0,791.3553,767.1795,722.4542,770.40295
2022-07-05 13:58:33.507,0.9926655,0.50697505,0.8278223,0.26318204,-0.007455816,0,804.65204,790.54944,792.1612,799.011
2022-07-05 13:58:33.507,0.9926655,0.50697505,0.8278223,0.26318204,-0.007455816,0,828.022,789.7436,868.315,848.97437
2022-07-05 13:58:33.507,0.9926655,0.50697505,0.8278223,0.26318204,-0.007455816,0,816.337,749.0476,812.3077,823.5897
2022-07-05 13:58:33.508,0.9926655,0.50697505,0.8278223,0.26318204,-0.007455816,0,786.1172,769.59705,749.85345,778.46155
2022-07-05 13:58:33.508,0.9926655,0.50697505,0.8278223,0.26318204,-0.007455816,0,785.31134,813.5165,789.34064,792.96704
2022-07-05 13:58:33.508,0.9926655,0.50697505,0.8278223,0.26318204,-0.007455816,0,813.91943,836.08057,875.9707,844.1392
2022-07-05 13:58:33.509,0.9926655,0.50697505,0.8278223,0.26318204,-0.007455816,0,821.1722,827.2161,857.8388,835.6777
2022-07-05 13:58:33.509,0.8538633,0.45136693,0.8928729,0.2772798,0.001696432,0,799.81683,795.38464,767.1795,784.10254
2022-07-05 13:58:33.511,0.8538633,0.45136693,0.8928729,0.2772798,0.001696432,0,787.72894,786.1172,764.35895,777.6557
2022-07-05 13:58:33.511,0.8538633,0.45136693,0.8928729,0.2772798,0.001696432,0,812.71063,804.2491,850.989,822.7839
2022-07-05 13:58:33.511,0.8538633,0.45136693,0.8928729,0.2772798,0.001696432,0,831.2454,813.91943,871.13556,845.7509
2022-07-05 13:58:33.512,0.8538633,0.45136693,0.8928729,0.2772798,0.001696432,0,815.12823,784.10254,774.83514,813.1135
2022-07-05 13:58:33.512,0.8538633,0.45136693,0.8928729,0.2772798,0.001696432,0,790.14655,772.4176,738.5714,773.22345
2022-07-05 13:58:33.512,0.8538633,0.45136693,0.8928729,0.2772798,0.001696432,0,785.31134,803.0403,811.9048,782.49084
2022-07-05 13:58:33.513,0.8538633,0.45136693,0.8928729,0.2772798,0.001696432,0,818.3516,819.9634,872.74725,836.4835
2022-07-05 13:58:33.513,0.8538633,0.45136693,0.8928729,0.2772798,0.001696432,0,803.0403,808.2784,804.2491,809.4872
2022-07-05 13:58:33.513,0.8538633,0.45136693,0.8928729,0.2772798,0.001696432,0,763.5531,764.7619,727.28937,750.2564
2022-07-05 13:58:33.514,0.8538633,0.45136693,0.8928729,0.2772798,0.001696432,0,769.19415,731.7216,763.5531,763.95605
2022-07-05 13:58:33.514,0.8538633,0.45136693,0.8928729,0.2772798,0.001696432,0,802.6374,815.9341,857.8388,815.5311
2022-07-05 13:58:33.514,0.8538633,0.45136693,0.8928729,0.2772798,0.001696432,0,800.6227,848.5714,817.5458,799.81683
2022-07-05 13:58:33.514,0.8538633,0.45136693,0.8928729,0.2772798,0.001696432,0,771.6117,800.2198,728.9011,745.82416
2022-07-05 13:58:33.515,0.8538633,0.45136693,0.8928729,0.2772798,0.001696432,0,774.0293,779.67035,750.65936,753.8828
2022-07-05 13:58:33.538,0.8538633,0.45136693,0.8928729,0.2772798,0.001696432,0,805.8608,822.7839,833.663,810.696
2022-07-05 13:58:33.539,0.8538633,0.45136693,0.8928729,0.2772798,0.001696432,0,815.5311,838.0952,831.2454,819.9634
2022-07-05 13:58:33.539,0.8538633,0.45136693,0.8928729,0.2772798,0.001696432,0,789.7436,782.49084,749.85345,770.40295
2022-07-05 13:58:33.539,0.8538633,0.45136693,0.8928729,0.2772798,0.001696432,0,782.49084,768.3883,738.97437,759.5238
2022-07-05 13:58:33.540,0.8538633,0.45136693,0.8928729,0.2772798,0.001696432,0,816.337,815.5311,824.3956,816.337
2022-07-05 13:58:33.540,0.8538633,0.45136693,0.8928729,0.2772798,0.001696432,0,840.9158,847.76556,861.06226,848.97437
2022-07-05 13:58:33.540,0.8538633,0.45136693,0.8928729,0.2772798,0.001696432,0,814.3223,821.978,780.4762,804.65204
2022-07-05 13:58:33.541,0.8538633,0.45136693,0.8928729,0.2772798,0.001696432,0,796.1905,786.9231,739.7802,777.6557
2022-07-05 13:58:33.541,0.8538633,0.45136693,0.8928729,0.2772798,0.001696432,0,819.5604,819.15753,810.293,815.5311
2022-07-05 13:58:33.541,0.8538633,0.45136693,0.8928729,0.2772798,0.001696432,0,846.9597,853.00366,876.77655,863.8828
2022-07-05 13:58:33.542,0.8538633,0.45136693,0.8928729,0.2772798,0.001696432,0,822.381,800.2198,801.4286,826.8132
2022-07-05 13:58:33.542,0.91470945,0.46377698,0.9229295,0.30744112,0.027801422,0,792.96704,763.5531,726.08057,781.28204
2022-07-05 13:58:33.598,0.91470945,0.46377698,0.9229295,0.30744112,0.027801422,0,802.6374,778.86444,781.28204,807.0696
2022-07-05 13:58:33.598,0.91470945,0.46377698,0.9229295,0.30744112,0.027801422,0,832.4542,825.2015,869.5238,855.0183
2022-07-05 13:58:33.599,0.91470945,0.46377698,0.9229295,0.30744112,0.027801422,0,825.2015,823.5897,831.2454,838.49817
2022-07-05 13:58:33.599,0.91470945,0.46377698,0.9229295,0.30744112,0.027801422,0,790.9524,784.10254,751.8681,784.90845
2022-07-05 13:58:33.599,0.91470945,0.46377698,0.9229295,0.30744112,0.027801422,0,791.3553,770.40295,763.95605,787.72894
2022-07-05 13:58:33.600,0.91470945,0.46377698,0.9229295,0.30744112,0.027801422,0,826.4103,814.7253,852.6007,839.304
2022-07-05 13:58:33.600,0.91470945,0.46377698,0.9229295,0.30744112,0.027801422,0,832.4542,830.84247,864.2857,846.1539
2022-07-05 13:58:33.600,0.91470945,0.46377698,0.9229295,0.30744112,0.027801422,0,805.05493,773.6264,767.98535,797.8022
2022-07-05 13:58:33.601,0.91470945,0.46377698,0.9229295,0.30744112,0.027801422,0,794.17584,760.32965,740.989,780.07324
2022-07-05 13:58:33.601,0.91470945,0.46377698,0.9229295,0.30744112,0.027801422,0,817.1429,803.0403,828.8278,822.7839
2022-07-05 13:58:33.601,0.91470945,0.46377698,0.9229295,0.30744112,0.027801422,0,845.34796,838.9011,878.3883,861.06226
2022-07-05 13:58:33.602,0.91470945,0.46377698,0.9229295,0.30744112,0.027801422,0,823.1868,814.7253,788.5348,817.9487
2022-07-05 13:58:33.631,0.91470945,0.46377698,0.9229295,0.30744112,0.027801422,0,799.81683,776.04395,734.1392,779.2674
2022-07-05 13:58:33.632,0.91470945,0.46377698,0.9229295,0.30744112,0.027801422,0,816.337,788.93774,800.6227,814.3223
2022-07-05 13:58:33.633,0.91470945,0.46377698,0.9229295,0.30744112,0.027801422,0,843.3333,834.4689,876.3736,859.85345
2022-07-05 13:58:33.633,0.91470945,0.46377698,0.9229295,0.30744112,0.027801422,0,830.84247,818.7546,813.5165,834.0659
2022-07-05 13:58:33.633,0.91470945,0.46377698,0.9229295,0.30744112,0.027801422,0,796.1905,770,729.707,785.31134
2022-07-05 13:58:33.633,0.91470945,0.46377698,0.9229295,0.30744112,0.027801422,0,798.20514,787.72894,769.59705,796.1905
2022-07-05 13:58:33.634,0.91470945,0.46377698,0.9229295,0.30744112,0.027801422,0,837.6923,836.8865,861.8681,849.3773
2022-07-05 13:58:33.634,0.91470945,0.46377698,0.9229295,0.30744112,0.027801422,0,840.9158,816.7399,835.2747,842.9304
2022-07-05 13:58:33.634,0.91470945,0.46377698,0.9229295,0.30744112,0.027801422,0,808.68134,776.04395,749.45056,790.54944
2022-07-05 13:58:33.635,0.91470945,0.46377698,0.9229295,0.30744112,0.027801422,0,799.41394,774.83514,757.9121,786.1172
2022-07-05 13:58:33.635,0.91470945,0.46377698,0.9229295,0.30744112,0.027801422,0,823.1868,813.91943,847.76556,832.8571
2022-07-05 13:58:33.635,0.91470945,0.46377698,0.9229295,0.30744112,0.027801422,0,836.8865,830.84247,865.4945,846.9597
2022-07-05 13:58:33.680,0.91470945,0.46377698,0.9229295,0.30744112,0.027801422,0,806.6667,779.67035,767.98535,794.57874
2022-07-05 13:58:33.680,0.94153386,0.4926174,0.9229295,0.3320532,0.050168283,0,789.7436,755.89746,738.97437,773.6264
2022-07-05 13:58:33.682,0.94153386,0.4926174,0.9229295,0.3320532,0.050168283,0,815.12823,809.0842,826.4103,817.9487
2022-07-05 13:58:33.682,0.94153386,0.4926174,0.9229295,0.3320532,0.050168283,0,835.6777,848.97437,872.74725,851.39197
2022-07-05 13:58:33.683,0.94153386,0.4926174,0.9229295,0.3320532,0.050168283,0,812.3077,806.6667,786.52014,810.696
2022-07-05 13:58:33.683,0.94153386,0.4926174,0.9229295,0.3320532,0.050168283,0,793.7729,795.78754,736.9597,772.8205
2022-07-05 13:58:33.683,0.94153386,0.4926174,0.9229295,0.3320532,0.050168283,0,807.8755,826.0073,804.65204,805.05493
2022-07-05 13:58:33.684,0.94153386,0.4926174,0.9229295,0.3320532,0.050168283,0,842.52747,852.1978,884.43225,855.82416
2022-07-05 13:58:33.684,0.94153386,0.4926174,0.9229295,0.3320532,0.050168283,0,832.4542,811.50183,825.6044,830.84247
2022-07-05 13:58:33.684,0.94153386,0.4926174,0.9229295,0.3320532,0.050168283,0,795.38464,747.4359,739.3773,778.46155
2022-07-05 13:58:33.684,0.94153386,0.4926174,0.9229295,0.3320532,0.050168283,0,794.17584,757.50916,761.53845,784.90845
2022-07-05 13:58:33.685,0.94153386,0.4926174,0.9229295,0.3320532,0.050168283,0,824.7985,816.7399,850.58606,844.5421
2022-07-05 13:58:33.736,0.94153386,0.4926174,0.9229295,0.3320532,0.050168283,0,828.022,827.2161,845.34796,844.1392
2022-07-05 13:58:33.737,0.94153386,0.4926174,0.9229295,0.3320532,0.050168283,0,799.41394,780.07324,754.2857,786.1172
2022-07-05 13:58:33.737,0.94153386,0.4926174,0.9229295,0.3320532,0.050168283,0,796.99634,767.5824,749.45056,778.46155
2022-07-05 13:58:33.737,0.94153386,0.4926174,0.9229295,0.3320532,0.050168283,0,821.978,817.5458,840.5128,830.4396
2022-07-05 13:58:33.738,0.94153386,0.4926174,0.9229295,0.3320532,0.050168283,0,834.87177,848.97437,869.92676,853.00366
2022-07-05 13:58:33.738,0.94153386,0.4926174,0.9229295,0.3320532,0.050168283,0,815.5311,825.6044,790.54944,810.696
2022-07-05 13:58:33.738,0.94153386,0.4926174,0.9229295,0.3320532,0.050168283,0,805.05493,811.50183,755.89746,786.1172
2022-07-05 13:58:33.738,0.94153386,0.4926174,0.9229295,0.3320532,0.050168283,0,816.7399,821.5751,821.978,822.381
2022-07-05 13:58:33.739,0.94153386,0.4926174,0.9229295,0.3320532,0.050168283,0,836.4835,828.4249,874.7619,862.27106
2022-07-05 13:58:33.739,0.94153386,0.4926174,0.9229295,0.3320532,0.050168283,0,819.15753,788.93774,798.20514,822.381
2022-07-05 13:58:33.739,0.94153386,0.4926174,0.9229295,0.3320532,0.050168283,0,801.8315,761.13556,738.97437,785.7143
2022-07-05 13:58:33.739,0.94153386,0.4926174,0.9229295,0.3320532,0.050168283,0,815.9341,786.52014,795.38464,813.5165
2022-07-05 13:58:33.840,0.94153386,0.4926174,0.9229295,0.3320532,0.050168283,0,841.31866,829.6337,876.77655,856.63007
2022-07-05 13:58:33.841,0.94153386,0.4926174,0.9229295,0.3320532,0.050168283,0,832.0513,826.4103,832.4542,836.08057
2022-07-05 13:58:33.841,0.94153386,0.4926174,0.9229295,0.3320532,0.050168283,0,800.6227,792.1612,748.6447,785.31134
2022-07-05 13:58:33.842,0.94612974,0.5277154,0.92455924,0.34750494,0.06624546,0,801.4286,784.90845,772.01465,790.54944
2022-07-05 13:58:33.843,0.94612974,0.5277154,0.92455924,0.34750494,0.06624546,0,829.6337,826.4103,859.45056,842.52747
2022-07-05 13:58:33.844,0.94612974,0.5277154,0.92455924,0.34750494,0.06624546,0,833.663,848.5714,857.03296,845.7509
2022-07-05 13:58:33.844,0.94612974,0.5277154,0.92455924,0.34750494,0.06624546,0,809.89014,815.12823,764.7619,792.1612
2022-07-05 13:58:33.844,0.94612974,0.5277154,0.92455924,0.34750494,0.06624546,0,797.8022,779.2674,751.4652,778.86444
2022-07-05 13:58:33.845,0.94612974,0.5277154,0.92455924,0.34750494,0.06624546,0,819.9634,817.1429,840.9158,826.8132
2022-07-05 13:58:33.845,0.94612974,0.5277154,0.92455924,0.34750494,0.06624546,0,832.8571,841.7216,874.7619,855.42126
2022-07-05 13:58:33.845,0.94612974,0.5277154,0.92455924,0.34750494,0.06624546,0,807.0696,788.93774,778.0586,807.8755
2022-07-05 13:58:33.846,0.94612974,0.5277154,0.92455924,0.34750494,0.06624546,0,789.7436,770,732.52747,778.86444
2022-07-05 13:58:33.846,0.94612974,0.5277154,0.92455924,0.34750494,0.06624546,0,804.2491,808.2784,805.8608,817.5458
2022-07-05 13:58:33.846,0.94612974,0.5277154,0.92455924,0.34750494,0.06624546,0,827.2161,844.94507,870.32965,851.39197
2022-07-05 13:58:33.847,0.94612974,0.5277154,0.92455924,0.34750494,0.06624546,0,809.89014,815.5311,803.0403,812.3077
2022-07-05 13:58:33.847,0.94612974,0.5277154,0.92455924,0.34750494,0.06624546,0,784.5055,775.2381,733.73627,771.2088
2022-07-05 13:58:33.848,0.94612974,0.5277154,0.92455924,0.34750494,0.06624546,0,787.326,788.5348,780.07324,795.38464
2022-07-05 13:58:33.848,0.94612974,0.5277154,0.92455924,0.34750494,0.06624546,0,818.3516,845.34796,870.7326,849.7802
2022-07-05 13:58:33.848,0.94612974,0.5277154,0.92455924,0.34750494,0.06624546,0,819.5604,847.3626,842.52747,841.7216
2022-07-05 13:58:33.849,0.94612974,0.5277154,0.92455924,0.34750494,0.06624546,0,797.3993,791.75824,752.27106,794.17584
2022-07-05 13:58:33.849,0.94612974,0.5277154,0.92455924,0.34750494,0.06624546,0,792.5641,780.07324,757.50916,794.57874
2022-07-05 13:58:33.849,0.94612974,0.5277154,0.92455924,0.34750494,0.06624546,0,815.9341,823.1868,851.79486,842.9304
2022-07-05 13:58:33.850,0.94612974,0.5277154,0.92455924,0.34750494,0.06624546,0,832.0513,849.3773,869.12085,852.6007
2022-07-05 13:58:33.850,0.94612974,0.5277154,0.92455924,0.34750494,0.06624546,0,809.0842,792.5641,775.64105,796.1905
2022-07-05 13:58:33.880,0.94612974,0.5277154,0.92455924,0.34750494,0.06624546,0,797.3993,747.8388,744.61536,777.25275
2022-07-05 13:58:33.881,0.94612974,0.5277154,0.92455924,0.34750494,0.06624546,0,819.9634,810.293,828.8278,821.1722
2022-07-05 13:58:33.882,0.94612974,0.5277154,0.92455924,0.34750494,0.06624546,0,840.10986,843.3333,870.7326,852.1978
2022-07-05 13:58:33.882,0.94612974,0.5277154,0.92455924,0.34750494,0.06624546,0,815.5311,750.2564,774.43225,809.0842
2022-07-05 13:58:33.882,0.94612974,0.5277154,0.92455924,0.34750494,0.06624546,0,786.9231,711.978,724.87177,770
2022-07-05 13:58:33.882,0.93820226,0.5540534,0.9319819,0.35479704,0.07338867,0,799.41394,764.7619,792.5641,795.78754
2022-07-05 13:58:33.884,0.93820226,0.5540534,0.9319819,0.35479704,0.07338867,0,832.0513,826.0073,866.30035,842.1245
2022-07-05 13:58:33.884,0.93820226,0.5540534,0.9319819,0.35479704,0.07338867,0,812.3077,811.0989,813.91943,815.5311
2022-07-05 13:58:33.885,0.93820226,0.5540534,0.9319819,0.35479704,0.07338867,0,784.90845,778.0586,745.42126,769.59705
2022-07-05 13:58:33.885,0.93820226,0.5540534,0.9319819,0.35479704,0.07338867,0,789.34064,784.90845,779.2674,782.0879
2022-07-05 13:58:33.885,0.93820226,0.5540534,0.9319819,0.35479704,0.07338867,0,811.50183,842.9304,867.50916,830.4396
2022-07-05 13:58:33.885,0.93820226,0.5540534,0.9319819,0.35479704,0.07338867,0,817.9487,892.0879,861.8681,832.0513
2022-07-05 13:58:33.914,0.93820226,0.5540534,0.9319819,0.35479704,0.07338867,0,790.54944,845.34796,770,782.0879
2022-07-05 13:58:33.914,0.93820226,0.5540534,0.9319819,0.35479704,0.07338867,0,781.28204,815.5311,757.50916,772.01465
2022-07-05 13:58:33.915,0.93820226,0.5540534,0.9319819,0.35479704,0.07338867,0,804.2491,843.73627,842.1245,820.3663
2022-07-05 13:58:33.915,0.93820226,0.5540534,0.9319819,0.35479704,0.07338867,0,816.7399,837.6923,855.82416,839.707
2022-07-05 13:58:33.915,0.93820226,0.5540534,0.9319819,0.35479704,0.07338867,0,792.96704,792.1612,764.35895,792.1612
2022-07-05 13:58:33.916,0.93820226,0.5540534,0.9319819,0.35479704,0.07338867,0,776.04395,797.3993,742.6007,770.40295
2022-07-05 13:58:33.916,0.93820226,0.5540534,0.9319819,0.35479704,0.07338867,0,802.23444,833.663,824.7985,810.293
2022-07-05 13:58:33.916,0.93820226,0.5540534,0.9319819,0.35479704,0.07338867,0,830.4396,842.9304,871.53845,843.73627
2022-07-05 13:58:33.917,0.93820226,0.5540534,0.9319819,0.35479704,0.07338867,0,806.26373,802.23444,793.7729,803.44324
2022-07-05 13:58:33.917,0.93820226,0.5540534,0.9319819,0.35479704,0.07338867,0,782.49084,778.0586,739.7802,772.01465
2022-07-05 13:58:33.917,0.93820226,0.5540534,0.9319819,0.35479704,0.07338867,0,799.81683,797.3993,793.7729,806.6667
2022-07-05 13:58:33.917,0.93820226,0.5540534,0.9319819,0.35479704,0.07338867,0,835.2747,826.0073,865.89746,854.61536
2022-07-05 13:58:33.981,0.93820226,0.5540534,0.9319819,0.35479704,0.07338867,0,823.5897,829.2308,819.9634,831.2454
2022-07-05 13:58:33.982,0.93820226,0.5540534,0.9319819,0.35479704,0.07338867,0,794.9817,795.78754,744.61536,781.685
2022-07-05 13:58:33.983,0.93820226,0.5540534,0.9319819,0.35479704,0.07338867,0,799.011,788.5348,776.4469,793.7729
2022-07-05 13:58:33.983,0.93820226,0.5540534,0.9319819,0.35479704,0.07338867,0,823.5897,822.7839,864.68866,842.52747
2022-07-05 13:58:33.983,0.93820226,0.5540534,0.9319819,0.35479704,0.07338867,0,818.7546,838.9011,847.76556,830.4396
2022-07-05 13:58:33.984,0.93820226,0.5540534,0.9319819,0.35479704,0.07338867,0,792.5641,816.337,767.1795,775.64105
2022-07-05 13:58:33.984,0.93820226,0.5540534,0.9319819,0.35479704,0.07338867,0,795.38464,809.4872,761.53845,766.77655
2022-07-05 13:58:33.984,0.9229006,0.5647262,0.9344754,0.3586998,0.07187473,0,815.5311,828.8278,834.87177,812.71063
2022-07-05 13:58:33.986,0.9229006,0.5647262,0.9344754,0.3586998,0.07187473,0,817.9487,832.0513,857.8388,834.87177
2022-07-05 13:58:33.986,0.9229006,0.5647262,0.9344754,0.3586998,0.07187473,0,796.99634,796.99634,784.90845,794.17584
2022-07-05 13:58:33.986,0.9229006,0.5647262,0.9344754,0.3586998,0.07187473,0,790.54944,770,758.315,776.04395
2022-07-05 13:58:33.987,0.9229006,0.5647262,0.9344754,0.3586998,0.07187473,0,792.1612,792.5641,812.71063,806.26373
2022-07-05 13:58:34.014,0.9229006,0.5647262,0.9344754,0.3586998,0.07187473,0,804.65204,823.5897,855.0183,837.6923
2022-07-05 13:58:34.015,0.9229006,0.5647262,0.9344754,0.3586998,0.07187473,0,788.1319,805.8608,792.1612,800.6227
2022-07-05 13:58:34.015,0.9229006,0.5647262,0.9344754,0.3586998,0.07187473,0,770,782.0879,737.76556,763.95605
2022-07-05 13:58:34.015,0.9229006,0.5647262,0.9344754,0.3586998,0.07187473,0,779.67035,788.1319,783.2967,791.75824
2022-07-05 13:58:34.016,0.9229006,0.5647262,0.9344754,0.3586998,0.07187473,0,803.0403,829.6337,853.00366,834.87177
2022-07-05 13:58:34.016,0.9229006,0.5647262,0.9344754,0.3586998,0.07187473,0,805.8608,832.4542,821.978,815.5311
2022-07-05 13:58:34.016,0.9229006,0.5647262,0.9344754,0.3586998,0.07187473,0,786.1172,791.75824,757.50916,775.64105
2022-07-05 13:58:34.017,0.9229006,0.5647262,0.9344754,0.3586998,0.07187473,0,779.67035,791.3553,773.6264,781.685
2022-07-05 13:58:34.017,0.9229006,0.5647262,0.9344754,0.3586998,0.07187473,0,805.4579,830.4396,852.1978,832.4542
2022-07-05 13:58:34.017,0.9229006,0.5647262,0.9344754,0.3586998,0.07187473,0,815.12823,829.2308,853.4066,840.10986
2022-07-05 13:58:34.017,0.9229006,0.5647262,0.9344754,0.3586998,0.07187473,0,793.7729,791.3553,773.22345,786.9231
2022-07-05 13:58:34.018,0.9229006,0.5647262,0.9344754,0.3586998,0.07187473,0,793.7729,784.90845,756.30035,775.64105
2022-07-05 13:58:34.047,0.9229006,0.5647262,0.9344754,0.3586998,0.07187473,0,822.381,821.978,838.49817,827.2161
2022-07-05 13:58:34.048,0.9229006,0.5647262,0.9344754,0.3586998,0.07187473,0,838.9011,844.94507,868.71796,850.989
2022-07-05 13:58:34.048,0.9229006,0.5647262,0.9344754,0.3586998,0.07187473,0,808.2784,807.8755,778.46155,801.4286
2022-07-05 13:58:34.049,0.9229006,0.5647262,0.9344754,0.3586998,0.07187473,0,783.69965,789.7436,739.3773,772.01465
2022-07-05 13:58:34.049,0.9229006,0.5647262,0.9344754,0.3586998,0.07187473,0,794.9817,814.3223,811.0989,801.4286
2022-07-05 13:58:34.049,0.9229006,0.5647262,0.9344754,0.3586998,0.07187473,0,831.2454,850.18317,878.7912,841.7216
2022-07-05 13:58:34.050,0.9229006,0.5647262,0.9344754,0.3586998,0.07187473,0,822.381,835.2747,816.337,816.7399
2022-07-05 13:58:34.050,0.9229006,0.5647262,0.9344754,0.3586998,0.07187473,0,784.90845,781.685,736.55676,770.80585
2022-07-05 13:58:34.050,0.9229006,0.5647262,0.9344754,0.3586998,0.07187473,0,788.5348,787.326,774.0293,784.10254
2022-07-05 13:58:34.051,0.911685,0.5600622,0.9344754,0.36405382,0.0758345,0,813.1135,840.5128,855.82416,834.87177
2022-07-05 13:58:34.052,0.911685,0.5600622,0.9344754,0.36405382,0.0758345,0,811.9048,836.08057,827.2161,823.1868
2022-07-05 13:58:34.052,0.911685,0.5600622,0.9344754,0.36405382,0.0758345,0,792.1612,784.5055,747.8388,773.22345
2022-07-05 13:58:34.114,0.911685,0.5600622,0.9344754,0.36405382,0.0758345,0,783.2967,772.4176,750.65936,770.80585
2022-07-05 13:58:34.115,0.911685,0.5600622,0.9344754,0.36405382,0.0758345,0,801.8315,824.3956,831.6484,817.9487
2022-07-05 13:58:34.116,0.911685,0.5600622,0.9344754,0.36405382,0.0758345,0,815.5311,845.7509,852.1978,835.2747
2022-07-05 13:58:34.116,0.911685,0.5600622,0.9344754,0.36405382,0.0758345,0,794.9817,813.91943,769.59705,788.1319
2022-07-05 13:58:34.116,0.911685,0.5600622,0.9344754,0.36405382,0.0758345,0,787.72894,792.5641,743.4066,769.19415
2022-07-05 13:58:34.117,0.911685,0.5600622,0.9344754,0.36405382,0.0758345,0,806.26373,828.8278,824.3956,813.1135
2022-07-05 13:58:34.117,0.911685,0.5600622,0.9344754,0.36405382,0.0758345,0,821.5751,870.32965,861.4652,842.52747
2022-07-05 13:58:34.117,0.911685,0.5600622,0.9344754,0.36405382,0.0758345,0,800.6227,822.381,776.8498,798.20514
2022-07-05 13:58:34.117,0.911685,0.5600622,0.9344754,0.36405382,0.0758345,0,777.25275,779.67035,732.9304,763.95605
2022-07-05 13:58:34.118,0.911685,0.5600622,0.9344754,0.36405382,0.0758345,0,794.9817,807.47253,796.99634,796.1905
2022-07-05 13:58:34.118,0.911685,0.5600622,0.9344754,0.36405382,0.0758345,0,824.7985,857.03296,869.12085,838.49817
2022-07-05 13:58:34.118,0.911685,0.5600622,0.9344754,0.36405382,0.0758345,0,814.7253,833.2601,815.12823,810.293
2022-07-05 13:58:34.148,0.911685,0.5600622,0.9344754,0.36405382,0.0758345,0,794.57874,787.326,743.4066,768.7912
